# Step     T (K)     E_KS (eV)    E_tot (eV)   Vol (A^3)    P (kBar)
     1      1.50    -469.90462    -469.90423     960.044      -0.067
     2      7.83    -469.90501    -469.90298     960.044       0.010
     3     10.15    -469.90489    -469.90226     960.044       0.104
     4     11.11    -469.90430    -469.90143     960.044       0.197
     5     11.22    -469.90361    -469.90071     960.044       0.275
     6     11.44    -469.90289    -469.89993     960.044       0.324
     7     12.72    -469.90245    -469.89917     960.044       0.333
     8     15.42    -469.90241    -469.89842     960.044       0.296
     9     18.87    -469.90257    -469.89769     960.044       0.214
    10     21.70    -469.90256    -469.89695     960.044       0.096
    11     22.58    -469.90204    -469.89620     960.044      -0.042
    12     21.07    -469.90085    -469.89540     960.044      -0.184
    13     17.95    -469.89925    -469.89461     960.044      -0.313
    14     14.92    -469.89765    -469.89379     960.044      -0.413
    15     14.06    -469.89661    -469.89298     960.044      -0.472
    16     17.06    -469.89661    -469.89220     960.044      -0.477
    17     24.27    -469.89775    -469.89148     960.044      -0.424
    18     34.13    -469.89964    -469.89081     960.044      -0.314
    19     43.82    -469.90152    -469.89019     960.044      -0.160
    20     50.60    -469.90266    -469.88958     960.044       0.021
    21     53.22    -469.90271    -469.88895     960.044       0.204
    22     52.50    -469.90186    -469.88829     960.044       0.365
    23     50.94    -469.90078    -469.88761     960.044       0.481
    24     51.38    -469.90024    -469.88695     960.044       0.535
    25     55.38    -469.90065    -469.88633     960.044       0.517
    26     62.18    -469.90182    -469.88575     960.044       0.430
    27     68.98    -469.90301    -469.88518     960.044       0.284
    28     72.50    -469.90334    -469.88460     960.044       0.100
    29     70.72    -469.90225    -469.88397     960.044      -0.097
    30     64.01    -469.89980    -469.88325     960.044      -0.284
    31     54.96    -469.89674    -469.88253     960.044      -0.438
    32     47.27    -469.89403    -469.88181     960.044      -0.541
    33     44.20    -469.89253    -469.88111     960.044      -0.581
    34     47.29    -469.89268    -469.88046     960.044      -0.550
    35     55.61    -469.89424    -469.87986     960.044      -0.450
    36     66.09    -469.89640    -469.87932     960.044      -0.290
    37     74.93    -469.89815    -469.87878     960.044      -0.087
    38     79.46    -469.89877    -469.87823     960.044       0.132
    39     79.49    -469.89820    -469.87766     960.044       0.339
    40     77.58    -469.89710    -469.87704     960.044       0.507
    41     77.62    -469.89650    -469.87644     960.044       0.609
    42     82.69    -469.89725    -469.87587     960.044       0.631
    43     93.04    -469.89943    -469.87538     960.044       0.568
    44    105.71    -469.90225    -469.87492     960.044       0.430
    45    116.01    -469.90446    -469.87447     960.044       0.238
    46    119.90    -469.90497    -469.87398     960.044       0.015
    47    116.00    -469.90348    -469.87349     960.044      -0.209
    48    106.17    -469.90028    -469.87284     960.044      -0.407
    49     94.55    -469.89665    -469.87221     960.044      -0.558
    50     85.78    -469.89374    -469.87157     960.044      -0.642
    51     83.03    -469.89244    -469.87097     960.044      -0.650
    52     86.77    -469.89288    -469.87045     960.044      -0.578
    53     94.61    -469.89444    -469.86998     960.044      -0.435
    54    102.42    -469.89602    -469.86954     960.044      -0.234
    55    106.35    -469.89659    -469.86910     960.044      -0.000
    56    104.80    -469.89570    -469.86861     960.044       0.239
    57     99.48    -469.89378    -469.86806     960.044       0.452
    58     94.78    -469.89198    -469.86748     960.044       0.609
    59     95.58    -469.89163    -469.86692     960.044       0.685
    60    104.47    -469.89345    -469.86644     960.044       0.669
    61    119.97    -469.89705    -469.86603     960.044       0.564
    62    137.10    -469.90111    -469.86567     960.044       0.385
    63    149.83    -469.90403    -469.86530     960.044       0.157
    64    154.10    -469.90472    -469.86489     960.044      -0.088
    65    149.59    -469.90307    -469.86440     960.044      -0.320
    66    139.54    -469.89992    -469.86385     960.044      -0.513
    67    129.09    -469.89667    -469.86330     960.044      -0.643
    68    122.94    -469.89458    -469.86280     960.044      -0.696
    69    123.33    -469.89424    -469.86235     960.044      -0.666
    70    129.21    -469.89538    -469.86198     960.044      -0.554
    71    136.77    -469.89701    -469.86165     960.044      -0.371
    72    141.20    -469.89783    -469.86133     960.044      -0.136
    73    139.14    -469.89690    -469.86093     960.044       0.122
    74    130.59    -469.89425    -469.86049     960.044       0.369
    75    119.36    -469.89084    -469.85998     960.044       0.573
    76    111.38    -469.88824    -469.85945     960.044       0.703
    77    111.72    -469.88783    -469.85895     960.044       0.741
    78    121.80    -469.89003    -469.85854     960.044       0.680
    79    138.46    -469.89399    -469.85820     960.044       0.531
    80    155.53    -469.89808    -469.85788     960.044       0.315
    81    167.02    -469.90070    -469.85752     960.044       0.061
    82    169.99    -469.90103    -469.85708     960.044      -0.198
    83    165.66    -469.89946    -469.85664     960.044      -0.429
    84    158.43    -469.89713    -469.85617     960.044      -0.607
    85    153.58    -469.89539    -469.85568     960.044      -0.712
    86    154.80    -469.89529    -469.85527     960.044      -0.731
    87    162.50    -469.89695    -469.85494     960.044      -0.662
    88    173.60    -469.89956    -469.85469     960.044      -0.511
    89    182.82    -469.90174    -469.85448     960.044      -0.293
    90    185.05    -469.90209    -469.85426     960.044      -0.035
    91    177.93    -469.89997    -469.85397     960.044       0.233
    92    163.38    -469.89582    -469.85358     960.044       0.476
    93    147.10    -469.89115    -469.85312     960.044       0.658
    94    136.06    -469.88783    -469.85266     960.044       0.754
    95    134.99    -469.88715    -469.85225     960.044       0.750
    96    143.99    -469.88914    -469.85191     960.044       0.646
    97    158.55    -469.89261    -469.85162     960.044       0.458
    98    172.10    -469.89582    -469.85133     960.044       0.214
    99    179.43    -469.89737    -469.85099     960.044      -0.054
   100    179.09    -469.89687    -469.85057     960.044      -0.314
   101    173.77    -469.89503    -469.85011     960.044      -0.533
   102    168.64    -469.89324    -469.84964     960.044      -0.688
   103    168.73    -469.89285    -469.84923     960.044      -0.760
   104    176.48    -469.89453    -469.84891     960.044      -0.741
   105    190.50    -469.89795    -469.84870     960.044      -0.630
   106    206.03    -469.90183    -469.84857     960.044      -0.440
   107    216.89    -469.90454    -469.84848     960.044      -0.191
   108    218.25    -469.90477    -469.84835     960.044       0.088
   109    209.05    -469.90209    -469.84805     960.044       0.362
   110    192.89    -469.89760    -469.84773     960.044       0.592
   111    176.59    -469.89301    -469.84736     960.044       0.745
   112    166.77    -469.89011    -469.84700     960.044       0.799
   113    166.49    -469.88975    -469.84671     960.044       0.746
   114    173.77    -469.89139    -469.84646     960.044       0.595
   115    182.95    -469.89352    -469.84623     960.044       0.370
   116    188.06    -469.89457    -469.84595     960.044       0.102
   117    186.05    -469.89368    -469.84558     960.044      -0.174
   118    178.22    -469.89119    -469.84511     960.044      -0.423
   119    169.34    -469.88843    -469.84466     960.044      -0.617
   120    165.19    -469.88692    -469.84422     960.044      -0.736
   121    169.95    -469.88778    -469.84384     960.044      -0.766
   122    184.26    -469.89120    -469.84357     960.044      -0.702
   123    204.68    -469.89631    -469.84340     960.044      -0.552
   124    224.94    -469.90145    -469.84330     960.044      -0.331
   125    238.40    -469.90485    -469.84322     960.044      -0.062
   126    240.98    -469.90541    -469.84311     960.044       0.220
   127    233.13    -469.90319    -469.84292     960.044       0.479
   128    219.73    -469.89944    -469.84264     960.044       0.676
   129    207.70    -469.89605    -469.84235     960.044       0.784
   130    202.33    -469.89441    -469.84211     960.044       0.785
   131    204.45    -469.89478    -469.84193     960.044       0.682
   132    210.26    -469.89614    -469.84178     960.044       0.490
   133    213.80    -469.89687    -469.84160     960.044       0.236
   134    210.51    -469.89576    -469.84134     960.044      -0.043
   135    199.81    -469.89264    -469.84099     960.044      -0.312
   136    185.31    -469.88847    -469.84057     960.044      -0.541
   137    173.13    -469.88485    -469.84010     960.044      -0.702
   138    169.02    -469.88337    -469.83967     960.044      -0.778
   139    175.89    -469.88481    -469.83934     960.044      -0.760
   140    192.49    -469.88889    -469.83913     960.044      -0.650
   141    213.79    -469.89429    -469.83902     960.044      -0.457
   142    232.96    -469.89920    -469.83897     960.044      -0.204
   143    244.22    -469.90205    -469.83891     960.044       0.081
   144    245.42    -469.90219    -469.83875     960.044       0.361
   145    239.14    -469.90033    -469.83851     960.044       0.596
   146    231.25    -469.89807    -469.83829     960.044       0.753
   147    227.61    -469.89693    -469.83809     960.044       0.811
   148    230.76    -469.89761    -469.83796     960.044       0.758
   149    238.39    -469.89951    -469.83789     960.044       0.607
   150    244.79    -469.90110    -469.83782     960.044       0.380
   151    244.16    -469.90081    -469.83769     960.044       0.109
   152    233.90    -469.89792    -469.83746     960.044      -0.170
   153    216.01    -469.89292    -469.83708     960.044      -0.423
   154    196.21    -469.88741    -469.83668     960.044      -0.621
   155    181.39    -469.88318    -469.83629     960.044      -0.742
   156    176.70    -469.88163    -469.83595     960.044      -0.772
   157    183.58    -469.88314    -469.83568     960.044      -0.709
   158    199.19    -469.88700    -469.83551     960.044      -0.556
   159    217.51    -469.89162    -469.83540     960.044      -0.329
   160    231.93    -469.89525    -469.83529     960.044      -0.053
   161    238.21    -469.89674    -469.83517     960.044       0.236
   162    236.52    -469.89614    -469.83500     960.044       0.500
   163    231.39    -469.89457    -469.83476     960.044       0.702
   164    229.18    -469.89376    -469.83452     960.044       0.812
   165    234.40    -469.89495    -469.83436     960.044       0.814
   166    246.79    -469.89809    -469.83429     960.044       0.707
   167    261.23    -469.90180    -469.83427     960.044       0.509
   168    270.49    -469.90416    -469.83424     960.044       0.248
   169    269.19    -469.90371    -469.83412     960.044      -0.038
   170    256.54    -469.90038    -469.83406     960.044      -0.314
   171    236.59    -469.89481    -469.83365     960.044      -0.547
   172    216.21    -469.88918    -469.83329     960.044      -0.712
   173    202.18    -469.88521    -469.83294     960.044      -0.791
   174    198.43    -469.88396    -469.83266     960.044      -0.777
   175    204.70    -469.88539    -469.83247     960.044      -0.669
   176    216.79    -469.88841    -469.83237     960.044      -0.477
   177    228.41    -469.89135    -469.83230     960.044      -0.220
   178    234.14    -469.89274    -469.83221     960.044       0.072
   179    232.13    -469.89210    -469.83209     960.044       0.360
   180    225.30    -469.89003    -469.83179     960.044       0.606
   181    220.02    -469.88838    -469.83150     960.044       0.773
   182    222.60    -469.88883    -469.83129     960.044       0.837
   183    235.43    -469.89203    -469.83117     960.044       0.789
   184    255.20    -469.89712    -469.83115     960.044       0.637
   185    274.43    -469.90211    -469.83117     960.044       0.404
   186    285.27    -469.90489    -469.83115     960.044       0.125
   187    283.49    -469.90433    -469.83105     960.044      -0.164
   188    270.21    -469.90065    -469.83080     960.044      -0.429
   189    251.11    -469.89546    -469.83054     960.044      -0.639
   190    233.65    -469.89067    -469.83027     960.044      -0.770
   191    223.91    -469.88792    -469.83003     960.044      -0.810
   192    224.21    -469.88784    -469.82988     960.044      -0.750
   193    232.33    -469.88987    -469.82981     960.044      -0.598
   194    242.54    -469.89249    -469.82979     960.044      -0.366
   195    248.21    -469.89392    -469.82976     960.044      -0.080
   196    245.14    -469.89300    -469.82963     960.044       0.223
   197    233.93    -469.88993    -469.82945     960.044       0.504
   198    220.11    -469.88608    -469.82918     960.044       0.724
   199    211.58    -469.88359    -469.82889     960.044       0.849
   200    214.39    -469.88409    -469.82867     960.044       0.862
   201    229.21    -469.88781    -469.82856     960.044       0.761
   202    250.73    -469.89335    -469.82853     960.044       0.563
   203    270.38    -469.89842    -469.82852     960.044       0.296
   204    280.77    -469.90104    -469.82846     960.044      -0.003
   205    279.26    -469.90049    -469.82830     960.044      -0.296
   206    268.75    -469.89756    -469.82809     960.044      -0.545
   207    255.77    -469.89395    -469.82783     960.044      -0.725
   208    247.18    -469.89148    -469.82758     960.044      -0.817
   209    247.12    -469.89130    -469.82741     960.044      -0.812
   210    255.31    -469.89335    -469.82735     960.044      -0.708
   211    267.15    -469.89644    -469.82738     960.044      -0.515
   212    275.75    -469.89873    -469.82745     960.044      -0.253
   213    275.03    -469.89859    -469.82749     960.044       0.048
   214    262.99    -469.89540    -469.82742     960.044       0.349
   215    243.25    -469.89006    -469.82718     960.044       0.608
   216    223.78    -469.88475    -469.82690     960.044       0.789
   217    213.16    -469.88175    -469.82664     960.044       0.865
   218    216.15    -469.88234    -469.82647     960.044       0.828
   219    231.05    -469.88612    -469.82639     960.044       0.682
   220    250.73    -469.89118    -469.82636     960.044       0.450
   221    266.47    -469.89519    -469.82631     960.044       0.167
   222    272.43    -469.89662    -469.82619     960.044      -0.133
   223    268.19    -469.89531    -469.82598     960.044      -0.410
   224    258.31    -469.89248    -469.82571     960.044      -0.635
   225    249.72    -469.89000    -469.82544     960.044      -0.783
   226    248.44    -469.88947    -469.82525     960.044      -0.839
   227    256.87    -469.89157    -469.82516     960.044      -0.793
   228    272.67    -469.89568    -469.82520     960.044      -0.652
   229    289.56    -469.90017    -469.82532     960.044      -0.425
   230    299.87    -469.90299    -469.82546     960.044      -0.139
   231    298.10    -469.90259    -469.82553     960.044       0.172
   232    283.76    -469.89875    -469.82540     960.044       0.468
   233    262.13    -469.89301    -469.82525     960.044       0.706
   234    242.09    -469.88761    -469.82503     960.044       0.852
   235    231.66    -469.88473    -469.82484     960.044       0.885
   236    233.74    -469.88516    -469.82474     960.044       0.799
   237    244.77    -469.88798    -469.82471     960.044       0.610
   238    257.00    -469.89112    -469.82468     960.044       0.346
   239    263.06    -469.89258    -469.82458     960.044       0.045
   240    259.90    -469.89156    -469.82437     960.044      -0.253
   241    250.03    -469.88871    -469.82407     960.044      -0.514
   242    239.79    -469.88577    -469.82379     960.044      -0.707
   243    236.13    -469.88456    -469.82352     960.044      -0.813
   244    243.33    -469.88625    -469.82334     960.044      -0.820
   245    261.07    -469.89078    -469.82329     960.044      -0.727
   246    284.31    -469.89685    -469.82335     960.044      -0.544
   247    305.16    -469.90237    -469.82349     960.044      -0.290
   248    316.05    -469.90531    -469.82361     960.044       0.008
   249    313.19    -469.90494    -469.82398     960.044       0.311
   250    298.50    -469.90080    -469.82363     960.044       0.579
   251    279.05    -469.89563    -469.82349     960.044       0.770
   252    263.54    -469.89147    -469.82334     960.044       0.858
   253    257.71    -469.88988    -469.82326     960.044       0.833
   254    261.39    -469.89083    -469.82326     960.044       0.698
   255    269.01    -469.89282    -469.82328     960.044       0.475
   256    273.12    -469.89386    -469.82326     960.044       0.197
   257    268.76    -469.89262    -469.82314     960.044      -0.100
   258    256.04    -469.88911    -469.82292     960.044      -0.378
   259    239.96    -469.88463    -469.82260     960.044      -0.606
   260    227.78    -469.88115    -469.82227     960.044      -0.758
   261    225.75    -469.88036    -469.82200     960.044      -0.821
   262    236.46    -469.88297    -469.82185     960.044      -0.786
   263    257.64    -469.88843    -469.82183     960.044      -0.655
   264    282.93    -469.89507    -469.82193     960.044      -0.440
   265    304.22    -469.90072    -469.82208     960.044      -0.166
   266    315.04    -469.90365    -469.82220     960.044       0.135
   267    313.46    -469.90321    -469.82218     960.044       0.426
   268    302.98    -469.90043    -469.82211     960.044       0.667
   269    290.94    -469.89724    -469.82203     960.044       0.820
   270    284.48    -469.89552    -469.82198     960.044       0.865
   271    286.41    -469.89604    -469.82200     960.044       0.792
   272    293.61    -469.89800    -469.82209     960.044       0.617
   273    299.09    -469.89949    -469.82218     960.044       0.364
   274    296.27    -469.89877    -469.82218     960.044       0.070
   275    282.82    -469.89516    -469.82204     960.044      -0.225
   276    261.92    -469.88947    -469.82177     960.044      -0.485
   277    240.65    -469.88369    -469.82148     960.044      -0.682
   278    226.77    -469.87983    -469.82121     960.044      -0.793
   279    225.43    -469.87927    -469.82100     960.044      -0.806
   280    237.09    -469.88218    -469.82089     960.044      -0.720
   281    257.38    -469.88743    -469.82089     960.044      -0.543
   282    278.78    -469.89302    -469.82095     960.044      -0.293
   283    293.83    -469.89696    -469.82100     960.044      -0.002
   284    298.51    -469.89820    -469.82104     960.044       0.296
   285    294.08    -469.89700    -469.82098     960.044       0.561
   286    286.52    -469.89493    -469.82086     960.044       0.756
   287    283.26    -469.89399    -469.82076     960.044       0.850
   288    288.77    -469.89541    -469.82076     960.044       0.830
   289    301.64    -469.89884    -469.82086     960.044       0.701
   290    315.27    -469.90250    -469.82100     960.044       0.482
   291    321.65    -469.90425    -469.82110     960.044       0.207
   292    315.78    -469.90273    -469.82110     960.044      -0.086
   293    298.06    -469.89808    -469.82103     960.044      -0.364
   294    273.94    -469.89158    -469.82077     960.044      -0.594
   295    251.43    -469.88549    -469.82049     960.044      -0.750
   296    237.71    -469.88170    -469.82025     960.044      -0.818
   297    236.38    -469.88120    -469.82009     960.044      -0.787
   298    246.29    -469.88370    -469.82003     960.044      -0.662
   299    262.10    -469.88782    -469.82006     960.044      -0.452
   300    276.56    -469.89163    -469.82013     960.044      -0.180
   301    283.80    -469.89354    -469.82017     960.044       0.122
   302    282.19    -469.89306    -469.82011     960.044       0.417
   303    275.48    -469.89118    -469.81997     960.044       0.661
   304    270.85    -469.88985    -469.81983     960.044       0.819
   305    274.77    -469.89078    -469.81975     960.044       0.868
   306    288.91    -469.89447    -469.81979     960.044       0.801
   307    308.70    -469.89972    -469.81992     960.044       0.629
   308    325.63    -469.90425    -469.82007     960.044       0.379
   309    331.77    -469.90593    -469.82016     960.044       0.086
   310    323.90    -469.90389    -469.82016     960.044      -0.212
   311    304.81    -469.89875    -469.81995     960.044      -0.478
   312    281.66    -469.89263    -469.81981     960.044      -0.681
   313    262.73    -469.88752    -469.81960     960.044      -0.801
   314    253.95    -469.88512    -469.81947     960.044      -0.826
   315    256.76    -469.88579    -469.81942     960.044      -0.749
   316    267.62    -469.88864    -469.81946     960.044      -0.578
   317    279.59    -469.89182    -469.81954     960.044      -0.329
   318    285.35    -469.89336    -469.81960     960.044      -0.029
   319    281.03    -469.89220    -469.81955     960.044       0.282
   320    268.47    -469.88885    -469.81945     960.044       0.564
   321    254.74    -469.88510    -469.81924     960.044       0.774
   322    248.61    -469.88332    -469.81905     960.044       0.883
   323    255.59    -469.88502    -469.81895     960.044       0.874
   324    274.60    -469.88997    -469.81898     960.044       0.751
   325    298.36    -469.89622    -469.81910     960.044       0.532
   326    317.19    -469.90120    -469.81920     960.044       0.251
   327    324.08    -469.90300    -469.81923     960.044      -0.055
   328    317.77    -469.90126    -469.81912     960.044      -0.346
   329    302.74    -469.89723    -469.81897     960.044      -0.589
   330    286.57    -469.89288    -469.81880     960.044      -0.759
   331    276.40    -469.89010    -469.81865     960.044      -0.837
   332    275.91    -469.88991    -469.81859     960.044      -0.815
   333    283.96    -469.89203    -469.81863     960.044      -0.695
   334    295.14    -469.89505    -469.81875     960.044      -0.486
   335    302.10    -469.89699    -469.81889     960.044      -0.212
   336    299.13    -469.89630    -469.81897     960.044       0.095
   337    285.26    -469.89267    -469.81893     960.044       0.397
   338    265.31    -469.88734    -469.81875     960.044       0.653
   339    248.08    -469.88267    -469.81854     960.044       0.824
   340    241.87    -469.88090    -469.81837     960.044       0.887
   341    250.01    -469.88293    -469.81830     960.044       0.834
   342    268.95    -469.88786    -469.81833     960.044       0.672
   343    290.15    -469.89341    -469.81840     960.044       0.427
   344    304.70    -469.89720    -469.81843     960.044       0.133
   345    307.68    -469.89794    -469.81840     960.044      -0.171
   346    300.11    -469.89584    -469.81826     960.044      -0.449
   347    287.86    -469.89246    -469.81805     960.044      -0.668
   348    278.48    -469.88986    -469.81787     960.044      -0.805
   349    277.69    -469.88955    -469.81777     960.044      -0.845
   350    286.94    -469.89196    -469.81778     960.044      -0.783
   351    302.71    -469.89617    -469.81791     960.044      -0.624
   352    317.82    -469.90028    -469.81812     960.044      -0.383
   353    324.58    -469.90220    -469.81829     960.044      -0.089
   354    318.42    -469.90062    -469.81831     960.044       0.224
   355    300.28    -469.89596    -469.81834     960.044       0.516
   356    276.89    -469.88978    -469.81820     960.044       0.746
   357    257.82    -469.88467    -469.81802     960.044       0.878
   358    250.57    -469.88267    -469.81789     960.044       0.893
   359    256.57    -469.88419    -469.81786     960.044       0.791
   360    270.64    -469.88787    -469.81790     960.044       0.588
   361    284.26    -469.89143    -469.81794     960.044       0.315
   362    290.31    -469.89295    -469.81790     960.044       0.011
   363    286.63    -469.89182    -469.81773     960.044      -0.287
   364    276.60    -469.88899    -469.81748     960.044      -0.543
   365    266.99    -469.88630    -469.81727     960.044      -0.728
   366    264.55    -469.88548    -469.81709     960.044      -0.824
   367    272.87    -469.88756    -469.81702     960.044      -0.820
   368    290.74    -469.89222    -469.81706     960.044      -0.715
   369    312.45    -469.89798    -469.81721     960.044      -0.521
   370    329.98    -469.90272    -469.81741     960.044      -0.256
   371    336.34    -469.90453    -469.81759     960.044       0.048
   372    329.02    -469.90285    -469.81779     960.044       0.348
   373    311.40    -469.89813    -469.81763     960.044       0.609
   374    291.28    -469.89282    -469.81752     960.044       0.792
   375    277.04    -469.88905    -469.81743     960.044       0.869
   376    273.32    -469.88807    -469.81741     960.044       0.832
   377    278.67    -469.88950    -469.81746     960.044       0.687
   378    286.83    -469.89167    -469.81753     960.044       0.456
   379    290.59    -469.89265    -469.81753     960.044       0.174
   380    285.82    -469.89133    -469.81745     960.044      -0.125
   381    273.47    -469.88793    -469.81724     960.044      -0.403
   382    258.94    -469.88391    -469.81697     960.044      -0.626
   383    249.42    -469.88119    -469.81671     960.044      -0.774
   384    250.54    -469.88129    -469.81653     960.044      -0.828
   385    264.00    -469.88471    -469.81646     960.044      -0.782
   386    286.68    -469.89063    -469.81652     960.044      -0.642
   387    311.67    -469.89726    -469.81669     960.044      -0.420
   388    330.81    -469.90242    -469.81690     960.044      -0.139
   389    338.11    -469.90446    -469.81705     960.044       0.168
   390    332.59    -469.90308    -469.81711     960.044       0.458
   391    318.89    -469.89953    -469.81709     960.044       0.692
   392    304.88    -469.89585    -469.81704     960.044       0.835
   393    297.37    -469.89390    -469.81703     960.044       0.866
   394    298.39    -469.89423    -469.81709     960.044       0.783
   395    304.21    -469.89585    -469.81721     960.044       0.598
   396    307.98    -469.89693    -469.81731     960.044       0.341
   397    303.86    -469.89587    -469.81732     960.044       0.047
   398    290.35    -469.89225    -469.81719     960.044      -0.244
   399    270.98    -469.88700    -469.81694     960.044      -0.499
   400    252.65    -469.88201    -469.81670     960.044      -0.689
   401    242.42    -469.87914    -469.81647     960.044      -0.793
   402    244.59    -469.87955    -469.81632     960.044      -0.800
   403    258.92    -469.88320    -469.81627     960.044      -0.710
   404    280.64    -469.88887    -469.81632     960.044      -0.529
   405    302.29    -469.89458    -469.81643     960.044      -0.277
   406    316.77    -469.89843    -469.81654     960.044       0.019
   407    320.58    -469.89950    -469.81663     960.044       0.321
   408    315.59    -469.89821    -469.81663     960.044       0.585
   409    308.02    -469.89619    -469.81656     960.044       0.775
   410    304.89    -469.89535    -469.81654     960.044       0.861
   411    309.79    -469.89668    -469.81660     960.044       0.831
   412    320.67    -469.89965    -469.81675     960.044       0.692
   413    330.95    -469.90248    -469.81693     960.044       0.465
   414    333.38    -469.90323    -469.81705     960.044       0.185
   415    323.99    -469.90082    -469.81706     960.044      -0.112
   416    304.18    -469.89557    -469.81694     960.044      -0.387
   417    279.93    -469.88909    -469.81673     960.044      -0.611
   418    259.11    -469.88348    -469.81649     960.044      -0.759
   419    248.26    -469.88048    -469.81630     960.044      -0.816
   420    250.12    -469.88085    -469.81619     960.044      -0.775
   421    262.71    -469.88410    -469.81619     960.044      -0.639
   422    280.21    -469.88870    -469.81626     960.044      -0.420
   423    295.42    -469.89273    -469.81636     960.044      -0.143
   424    303.06    -469.89476    -469.81642     960.044       0.157
   425    302.28    -469.89457    -469.81642     960.044       0.441
   426    297.04    -469.89314    -469.81635     960.044       0.673
   427    293.88    -469.89225    -469.81628     960.044       0.817
   428    298.17    -469.89335    -469.81627     960.044       0.852
   429    310.63    -469.89666    -469.81636     960.044       0.774
   430    326.70    -469.90098    -469.81652     960.044       0.597
   431    338.81    -469.90428    -469.81670     960.044       0.345
   432    340.47    -469.90481    -469.81680     960.044       0.056
   433    329.63    -469.90203    -469.81682     960.044      -0.234
   434    309.55    -469.89669    -469.81667     960.044      -0.490
   435    287.10    -469.89073    -469.81651     960.044      -0.684
   436    269.77    -469.88608    -469.81634     960.044      -0.793
   437    262.59    -469.88412    -469.81623     960.044      -0.807
   438    266.27    -469.88504    -469.81621     960.044      -0.723
   439    277.03    -469.88788    -469.81626     960.044      -0.546
   440    288.38    -469.89089    -469.81634     960.044      -0.298
   441    294.07    -469.89240    -469.81638     960.044      -0.004
   442    291.07    -469.89167    -469.81642     960.044       0.300
   443    281.54    -469.88912    -469.81634     960.044       0.573
   444    272.00    -469.88649    -469.81618     960.044       0.775
   445    269.97    -469.88585    -469.81606     960.044       0.875
   446    279.58    -469.88830    -469.81603     960.044       0.859
   447    298.99    -469.89341    -469.81612     960.044       0.731
   448    321.08    -469.89929    -469.81629     960.044       0.511
   449    337.06    -469.90357    -469.81644     960.044       0.229
   450    340.94    -469.90463    -469.81650     960.044      -0.074
   451    332.17    -469.90225    -469.81638     960.044      -0.362
   452    315.42    -469.89784    -469.81630     960.044      -0.599
   453    298.08    -469.89323    -469.81618     960.044      -0.761
   454    286.85    -469.89023    -469.81608     960.044      -0.829
   455    285.03    -469.88973    -469.81605     960.044      -0.797
   456    291.27    -469.89141    -469.81611     960.044      -0.667
   457    300.37    -469.89388    -469.81624     960.044      -0.452
   458    305.72    -469.89540    -469.81636     960.044      -0.177
   459    302.52    -469.89465    -469.81644     960.044       0.125
   460    290.40    -469.89147    -469.81640     960.044       0.416
   461    274.02    -469.88710    -469.81626     960.044       0.658
   462    261.05    -469.88358    -469.81610     960.044       0.816
   463    258.34    -469.88276    -469.81598     960.044       0.867
   464    268.19    -469.88528    -469.81595     960.044       0.805
   465    286.95    -469.89020    -469.81602     960.044       0.639
   466    306.82    -469.89543    -469.81612     960.044       0.394
   467    319.92    -469.89889    -469.81618     960.044       0.105
   468    322.11    -469.89945    -469.81619     960.044      -0.192
   469    314.48    -469.89740    -469.81610     960.044      -0.460
   470    302.48    -469.89413    -469.81593     960.044      -0.669
   471    293.00    -469.89154    -469.81580     960.044      -0.795
   472    291.15    -469.89100    -469.81574     960.044      -0.827
   473    298.08    -469.89284    -469.81578     960.044      -0.758
   474    310.49    -469.89618    -469.81592     960.044      -0.596
   475    321.93    -469.89932    -469.81610     960.044      -0.355
   476    325.59    -469.90042    -469.81625     960.044      -0.062
   477    317.67    -469.89844    -469.81632     960.044       0.248
   478    299.61    -469.89381    -469.81635     960.044       0.534
   479    278.00    -469.88809    -469.81622     960.044       0.755
   480    261.71    -469.88371    -469.81606     960.044       0.877
   481    257.29    -469.88246    -469.81595     960.044       0.882
   482    265.55    -469.88459    -469.81594     960.044       0.772
   483    281.17    -469.88869    -469.81601     960.044       0.562
   484    295.83    -469.89254    -469.81607     960.044       0.286
   485    302.74    -469.89432    -469.81606     960.044      -0.018
   486    299.96    -469.89344    -469.81590     960.044      -0.311
   487    290.80    -469.89089    -469.81572     960.044      -0.558
   488    281.73    -469.88838    -469.81555     960.044      -0.734
   489    279.08    -469.88757    -469.81543     960.044      -0.820
   490    286.15    -469.88936    -469.81539     960.044      -0.806
   491    301.69    -469.89345    -469.81546     960.044      -0.694
   492    320.37    -469.89844    -469.81562     960.044      -0.495
   493    334.82    -469.90239    -469.81584     960.044      -0.230
   494    338.79    -469.90366    -469.81608     960.044       0.070
   495    330.00    -469.90159    -469.81629     960.044       0.369
   496    311.72    -469.89665    -469.81607     960.044       0.625
   497    291.47    -469.89131    -469.81597     960.044       0.800
   498    277.21    -469.88754    -469.81588     960.044       0.869
   499    273.41    -469.88654    -469.81586     960.044       0.822
   500    278.79    -469.88797    -469.81590     960.044       0.670
   501    287.46    -469.89027    -469.81596     960.044       0.435
   502    292.47    -469.89158    -469.81597     960.044       0.149
   503    289.74    -469.89078    -469.81588     960.044      -0.149
   504    280.05    -469.88809    -469.81569     960.044      -0.422
   505    268.43    -469.88485    -469.81546     960.044      -0.639
   506    261.53    -469.88285    -469.81524     960.044      -0.776
   507    264.45    -469.88346    -469.81509     960.044      -0.821
   508    278.49    -469.88706    -469.81507     960.044      -0.767
   509    300.36    -469.89281    -469.81517     960.044      -0.619
   510    323.27    -469.89892    -469.81535     960.044      -0.391
   511    339.59    -469.90335    -469.81556     960.044      -0.110
   512    343.94    -469.90463    -469.81571     960.044       0.192
   513    335.81    -469.90264    -469.81583     960.044       0.474
   514    319.86    -469.89850    -469.81582     960.044       0.698
   515    303.71    -469.89427    -469.81576     960.044       0.831
   516    294.07    -469.89176    -469.81574     960.044       0.856
   517    293.33    -469.89161    -469.81578     960.044       0.769
   518    298.42    -469.89302    -469.81587     960.044       0.584
   519    302.87    -469.89426    -469.81596     960.044       0.327
   520    300.76    -469.89372    -469.81597     960.044       0.037
   521    290.12    -469.89084    -469.81584     960.044      -0.250
   522    273.86    -469.88641    -469.81562     960.044      -0.500
   523    258.24    -469.88216    -469.81540     960.044      -0.686
   524    250.04    -469.87981    -469.81518     960.044      -0.786
   525    253.49    -469.88057    -469.81504     960.044      -0.788
   526    268.47    -469.88442    -469.81501     960.044      -0.693
   527    290.45    -469.89017    -469.81509     960.044      -0.509
   528    312.28    -469.89595    -469.81522     960.044      -0.257
   529    327.06    -469.89991    -469.81536     960.044       0.036
   530    331.22    -469.90111    -469.81549     960.044       0.330
   531    326.22    -469.89984    -469.81551     960.044       0.585
   532    317.72    -469.89761    -469.81547     960.044       0.764
   533    312.29    -469.89620    -469.81547     960.044       0.844
   534    313.73    -469.89664    -469.81554     960.044       0.812
   535    320.79    -469.89862    -469.81569     960.044       0.674
   536    327.89    -469.90062    -469.81585     960.044       0.451
   537    328.46    -469.90087    -469.81596     960.044       0.177
   538    318.74    -469.89835    -469.81595     960.044      -0.111
   539    299.83    -469.89333    -469.81582     960.044      -0.379
   540    277.16    -469.88728    -469.81563     960.044      -0.598
   541    258.12    -469.88212    -469.81540     960.044      -0.741
   542    248.99    -469.87957    -469.81520     960.044      -0.794
   543    252.47    -469.88035    -469.81509     960.044      -0.753
   544    266.71    -469.88403    -469.81508     960.044      -0.618
   545    286.08    -469.88911    -469.81516     960.044      -0.405
   546    303.49    -469.89374    -469.81528     960.044      -0.136
   547    313.33    -469.89638    -469.81538     960.044       0.158
   548    314.11    -469.89662    -469.81543     960.044       0.436
   549    309.11    -469.89529    -469.81538     960.044       0.662
   550    304.64    -469.89408    -469.81533     960.044       0.803
   551    306.38    -469.89453    -469.81533     960.044       0.837
   552    315.97    -469.89710    -469.81542     960.044       0.762
   553    329.78    -469.90084    -469.81559     960.044       0.588
   554    340.70    -469.90385    -469.81578     960.044       0.340
   555    342.05    -469.90432    -469.81590     960.044       0.054
   556    331.31    -469.90164    -469.81599     960.044      -0.234
   557    311.27    -469.89613    -469.81567     960.044      -0.486
   558    288.61    -469.89025    -469.81564     960.044      -0.675
   559    270.92    -469.88549    -469.81545     960.044      -0.782
   560    263.44    -469.88345    -469.81535     960.044      -0.791
   561    267.19    -469.88439    -469.81532     960.044      -0.703
   562    278.61    -469.88739    -469.81537     960.044      -0.525
   563    291.33    -469.89076    -469.81545     960.044      -0.275
   564    299.07    -469.89283    -469.81552     960.044       0.014
   565    298.61    -469.89276    -469.81557     960.044       0.311
   566    291.60    -469.89090    -469.81552     960.044       0.574
   567    284.03    -469.88883    -469.81540     960.044       0.766
   568    283.01    -469.88847    -469.81531     960.044       0.856
   569    292.61    -469.89096    -469.81532     960.044       0.834
   570    311.04    -469.89585    -469.81544     960.044       0.701
   571    331.32    -469.90128    -469.81563     960.044       0.479
   572    344.90    -469.90495    -469.81579     960.044       0.202
   573    346.13    -469.90534    -469.81586     960.044      -0.092
   574    334.77    -469.90234    -469.81580     960.044      -0.368
   575    315.70    -469.89734    -469.81573     960.044      -0.594
   576    296.42    -469.89221    -469.81559     960.044      -0.745
   577    283.72    -469.88881    -469.81547     960.044      -0.805
   578    280.91    -469.88804    -469.81542     960.044      -0.770
   579    286.84    -469.88961    -469.81546     960.044      -0.641
   580    296.58    -469.89224    -469.81557     960.044      -0.433
   581    303.64    -469.89420    -469.81570     960.044      -0.167
   582    302.91    -469.89409    -469.81579     960.044       0.128
   583    293.39    -469.89160    -469.81576     960.044       0.413
   584    279.12    -469.88779    -469.81563     960.044       0.650
   585    267.60    -469.88465    -469.81548     960.044       0.805
   586    265.90    -469.88410    -469.81537     960.044       0.853
   587    276.67    -469.88688    -469.81536     960.044       0.789
   588    296.44    -469.89208    -469.81545     960.044       0.623
   589    317.29    -469.89760    -469.81558     960.044       0.380
   590    331.02    -469.90125    -469.81568     960.044       0.096
   591    333.15    -469.90184    -469.81571     960.044      -0.194
   592    324.68    -469.89960    -469.81566     960.044      -0.455
   593    311.06    -469.89592    -469.81551     960.044      -0.658
   594    299.35    -469.89277    -469.81539     960.044      -0.781
   595    295.02    -469.89160    -469.81534     960.044      -0.809
   596    299.63    -469.89283    -469.81538     960.044      -0.739
   597    310.16    -469.89569    -469.81551     960.044      -0.577
   598    320.38    -469.89851    -469.81569     960.044      -0.337
   599    323.52    -469.89948    -469.81584     960.044      -0.047
   600    315.65    -469.89753    -469.81593     960.044       0.259
   601    298.10    -469.89300    -469.81594     960.044       0.539
   602    277.54    -469.88754    -469.81579     960.044       0.752
   603    262.92    -469.88360    -469.81563     960.044       0.868
   604    260.78    -469.88295    -469.81553     960.044       0.870
   605    271.64    -469.88577    -469.81555     960.044       0.757
   606    289.73    -469.89054    -469.81564     960.044       0.548
   607    306.20    -469.89489    -469.81574     960.044       0.274
   608    313.96    -469.89691    -469.81575     960.044      -0.024
   609    310.99    -469.89601    -469.81562     960.044      -0.313
   610    300.79    -469.89325    -469.81549     960.044      -0.557
   611    290.23    -469.89036    -469.81534     960.044      -0.727
   612    286.02    -469.88915    -469.81521     960.044      -0.810
   613    291.70    -469.89059    -469.81518     960.044      -0.793
   614    306.12    -469.89440    -469.81526     960.044      -0.681
   615    323.82    -469.89915    -469.81544     960.044      -0.483
   616    337.21    -469.90284    -469.81567     960.044      -0.219
   617    339.82    -469.90374    -469.81589     960.044       0.078
   618    329.47    -469.90124    -469.81607     960.044       0.371
   619    309.61    -469.89590    -469.81587     960.044       0.622
   620    288.05    -469.89024    -469.81577     960.044       0.795
   621    273.30    -469.88631    -469.81566     960.044       0.863
   622    270.20    -469.88548    -469.81564     960.044       0.816
   623    277.45    -469.88740    -469.81568     960.044       0.663
   624    288.65    -469.89037    -469.81575     960.044       0.428
   625    296.27    -469.89235    -469.81576     960.044       0.146
   626    295.75    -469.89214    -469.81569     960.044      -0.148
   627    287.67    -469.88990    -469.81553     960.044      -0.416
   628    277.03    -469.88693    -469.81531     960.044      -0.628
   629    270.46    -469.88502    -469.81511     960.044      -0.765
   630    273.15    -469.88559    -469.81498     960.044      -0.810
   631    286.50    -469.88904    -469.81498     960.044      -0.759
   632    307.33    -469.89454    -469.81509     960.044      -0.614
   633    328.78    -469.90030    -469.81531     960.044      -0.389
   634    343.05    -469.90422    -469.81554     960.044      -0.109
   635    344.76    -469.90485    -469.81573     960.044       0.190
   636    333.62    -469.90202    -469.81577     960.044       0.472
   637    314.92    -469.89714    -469.81573     960.044       0.696
   638    297.09    -469.89245    -469.81565     960.044       0.830
   639    287.41    -469.88992    -469.81562     960.044       0.856
   640    288.10    -469.89014    -469.81566     960.044       0.768
   641    295.33    -469.89211    -469.81577     960.044       0.582
   642    301.72    -469.89386    -469.81586     960.044       0.325
   643    300.83    -469.89363    -469.81586     960.044       0.034
   644    290.67    -469.89087    -469.81573     960.044      -0.254
   645    274.61    -469.88649    -469.81550     960.044      -0.502
   646    259.52    -469.88237    -469.81528     960.044      -0.684
   647    252.48    -469.88033    -469.81506     960.044      -0.780
   648    257.59    -469.88153    -469.81495     960.044      -0.779
   649    274.32    -469.88585    -469.81493     960.044      -0.683
   650    297.62    -469.89197    -469.81503     960.044      -0.500
   651    319.88    -469.89788    -469.81519     960.044      -0.250
   652    333.95    -469.90167    -469.81534     960.044       0.038
   653    336.33    -469.90243    -469.81548     960.044       0.329
   654    328.74    -469.90049    -469.81551     960.044       0.583
   655    317.33    -469.89750    -469.81547     960.044       0.763
   656    309.34    -469.89542    -469.81545     960.044       0.842
   657    308.93    -469.89538    -469.81552     960.044       0.810
   658    314.80    -469.89703    -469.81565     960.044       0.672
   659    321.11    -469.89881    -469.81580     960.044       0.451
   660    321.10    -469.89888    -469.81588     960.044       0.177
   661    311.08    -469.89626    -469.81585     960.044      -0.112
   662    292.46    -469.89134    -469.81573     960.044      -0.379
   663    270.99    -469.88556    -469.81551     960.044      -0.596
   664    254.08    -469.88094    -469.81525     960.044      -0.740
   665    247.82    -469.87911    -469.81505     960.044      -0.795
   666    254.48    -469.88073    -469.81495     960.044      -0.754
   667    271.68    -469.88519    -469.81496     960.044      -0.620
   668    293.17    -469.89086    -469.81507     960.044      -0.406
   669    311.37    -469.89571    -469.81522     960.044      -0.136
   670    320.58    -469.89822    -469.81535     960.044       0.158
   671    319.62    -469.89799    -469.81537     960.044       0.440
   672    312.52    -469.89610    -469.81531     960.044       0.669
   673    306.40    -469.89447    -469.81526     960.044       0.810
   674    307.30    -469.89472    -469.81528     960.044       0.845
   675    316.57    -469.89723    -469.81539     960.044       0.767
   676    329.83    -469.90084    -469.81557     960.044       0.590
   677    339.42    -469.90350    -469.81576     960.044       0.341
   678    338.73    -469.90343    -469.81587     960.044       0.053
   679    325.72    -469.90007    -469.81587     960.044      -0.234
   680    303.98    -469.89424    -469.81566     960.044      -0.485
   681    280.74    -469.88808    -469.81551     960.044      -0.672
   682    263.69    -469.88349    -469.81532     960.044      -0.778
   683    257.92    -469.88188    -469.81521     960.044      -0.789
   684    264.09    -469.88345    -469.81518     960.044      -0.703
   685    278.24    -469.88716    -469.81523     960.044      -0.526
   686    293.52    -469.89121    -469.81533     960.044      -0.278
   687    303.26    -469.89381    -469.81541     960.044       0.014
   688    304.22    -469.89409    -469.81545     960.044       0.311
   689    298.30    -469.89253    -469.81541     960.044       0.574
   690    291.72    -469.89072    -469.81531     960.044       0.763
   691    291.53    -469.89061    -469.81525     960.044       0.852
   692    301.31    -469.89318    -469.81529     960.044       0.827
   693    318.77    -469.89784    -469.81544     960.044       0.695
   694    336.89    -469.90272    -469.81563     960.044       0.476
   695    347.58    -469.90564    -469.81578     960.044       0.202
   696    345.86    -469.90525    -469.81584     960.044      -0.090
   697    332.13    -469.90185    -469.81599     960.044      -0.365
   698    311.66    -469.89629    -469.81573     960.044      -0.593
   699    291.99    -469.89106    -469.81557     960.044      -0.746
   700    279.77    -469.88777    -469.81544     960.044      -0.809
   701    278.10    -469.88728    -469.81539     960.044      -0.775
   702    285.43    -469.88922    -469.81543     960.044      -0.647
   703    296.38    -469.89216    -469.81554     960.044      -0.434
   704    304.13    -469.89429    -469.81567     960.044      -0.162
   705    303.67    -469.89425    -469.81575     960.044       0.137
   706    294.50    -469.89184    -469.81571     960.044       0.425
   707    281.35    -469.88831    -469.81558     960.044       0.663
   708    272.06    -469.88577    -469.81543     960.044       0.815
   709    273.40    -469.88603    -469.81536     960.044       0.858
   710    287.04    -469.88960    -469.81539     960.044       0.788
   711    308.36    -469.89524    -469.81552     960.044       0.616
   712    328.80    -469.90068    -469.81568     960.044       0.368
   713    340.33    -469.90376    -469.81578     960.044       0.081
   714    339.27    -469.90359    -469.81589     960.044      -0.208
   715    327.56    -469.90042    -469.81574     960.044      -0.467
   716    311.32    -469.89609    -469.81561     960.044      -0.666
   717    297.89    -469.89250    -469.81550     960.044      -0.784
   718    292.52    -469.89107    -469.81545     960.044      -0.806
   719    296.36    -469.89212    -469.81551     960.044      -0.730
   720    306.03    -469.89476    -469.81564     960.044      -0.562
   721    315.14    -469.89729    -469.81582     960.044      -0.319
   722    317.22    -469.89796    -469.81596     960.044      -0.029
   723    309.04    -469.89589    -469.81600     960.044       0.273
   724    292.65    -469.89161    -469.81596     960.044       0.546
   725    274.91    -469.88688    -469.81582     960.044       0.751
   726    264.19    -469.88397    -469.81567     960.044       0.857
   727    265.84    -469.88433    -469.81561     960.044       0.851
   728    279.28    -469.88784    -469.81565     960.044       0.733
   729    298.28    -469.89286    -469.81575     960.044       0.525
   730    314.35    -469.89711    -469.81585     960.044       0.255
   731    321.15    -469.89887    -469.81585     960.044      -0.041
   732    317.42    -469.89783    -469.81577     960.044      -0.324
   733    307.10    -469.89505    -469.81566     960.044      -0.562
   734    296.91    -469.89229    -469.81554     960.044      -0.727
   735    293.06    -469.89119    -469.81543     960.044      -0.804
   736    298.50    -469.89259    -469.81542     960.044      -0.784
   737    311.60    -469.89607    -469.81552     960.044      -0.666
   738    326.73    -469.90016    -469.81570     960.044      -0.465
   739    336.65    -469.90294    -469.81591     960.044      -0.202
   740    335.67    -469.90285    -469.81607     960.044       0.094
   741    322.58    -469.89954    -469.81614     960.044       0.383
   742    301.66    -469.89405    -469.81606     960.044       0.628
   743    281.04    -469.88859    -469.81594     960.044       0.791
   744    268.77    -469.88532    -469.81584     960.044       0.851
   745    268.70    -469.88527    -469.81581     960.044       0.799
   746    278.58    -469.88788    -469.81586     960.044       0.643
   747    291.71    -469.89133    -469.81592     960.044       0.410
   748    300.77    -469.89369    -469.81594     960.044       0.131
   749    301.61    -469.89386    -469.81589     960.044      -0.158
   750    295.01    -469.89202    -469.81575     960.044      -0.421
   751    285.82    -469.88945    -469.81556     960.044      -0.629
   752    280.36    -469.88787    -469.81539     960.044      -0.760
   753    283.39    -469.88856    -469.81530     960.044      -0.799
   754    295.88    -469.89181    -469.81533     960.044      -0.741
   755    314.43    -469.89676    -469.81547     960.044      -0.591
   756    332.45    -469.90164    -469.81570     960.044      -0.364
   757    342.83    -469.90457    -469.81594     960.044      -0.085
   758    341.14    -469.90442    -469.81624     960.044       0.212
   759    327.98    -469.90088    -469.81609     960.044       0.487
   760    308.98    -469.89591    -469.81604     960.044       0.703
   761    292.13    -469.89149    -469.81597     960.044       0.828
   762    283.71    -469.88929    -469.81594     960.044       0.844
   763    285.05    -469.88968    -469.81599     960.044       0.750
   764    292.04    -469.89157    -469.81607     960.044       0.562
   765    297.90    -469.89314    -469.81613     960.044       0.307
   766    297.07    -469.89291    -469.81611     960.044       0.020
   767    288.22    -469.89048    -469.81597     960.044      -0.261
   768    274.79    -469.88678    -469.81575     960.044      -0.503
   769    263.04    -469.88356    -469.81556     960.044      -0.680
   770    259.17    -469.88236    -469.81536     960.044      -0.772
   771    266.59    -469.88419    -469.81527     960.044      -0.770
   772    284.25    -469.88877    -469.81529     960.044      -0.671
   773    306.99    -469.89476    -469.81540     960.044      -0.487
   774    327.45    -469.90022    -469.81557     960.044      -0.237
   775    339.04    -469.90337    -469.81572     960.044       0.050
   776    338.90    -469.90353    -469.81592     960.044       0.334
   777    329.23    -469.90101    -469.81590     960.044       0.581
   778    316.13    -469.89759    -469.81587     960.044       0.754
   779    306.47    -469.89509    -469.81586     960.044       0.828
   780    304.06    -469.89451    -469.81591     960.044       0.793
   781    307.70    -469.89556    -469.81601     960.044       0.654
   782    312.16    -469.89682    -469.81612     960.044       0.436
   783    311.49    -469.89669    -469.81617     960.044       0.167
   784    302.36    -469.89430    -469.81614     960.044      -0.117
   785    285.94    -469.88993    -469.81601     960.044      -0.380
   786    267.42    -469.88492    -469.81579     960.044      -0.594
   787    253.63    -469.88110    -469.81553     960.044      -0.734
   788    250.03    -469.87997    -469.81534     960.044      -0.785
   789    258.45    -469.88206    -469.81525     960.044      -0.741
   790    276.36    -469.88672    -469.81527     960.044      -0.606
   791    297.71    -469.89235    -469.81539     960.044      -0.391
   792    315.37    -469.89708    -469.81555     960.044      -0.123
   793    324.17    -469.89949    -469.81569     960.044       0.168
   794    323.27    -469.89926    -469.81569     960.044       0.444
   795    316.52    -469.89748    -469.81566     960.044       0.666
   796    310.36    -469.89586    -469.81563     960.044       0.801
   797    310.11    -469.89583    -469.81567     960.044       0.831
   798    316.74    -469.89766    -469.81578     960.044       0.750
   799    326.27    -469.90029    -469.81595     960.044       0.573
   800    332.07    -469.90194    -469.81610     960.044       0.329
   801    328.64    -469.90113    -469.81618     960.044       0.048
   802    314.62    -469.89745    -469.81612     960.044      -0.230
   803    293.49    -469.89180    -469.81593     960.044      -0.474
   804    271.87    -469.88603    -469.81575     960.044      -0.658
   805    256.81    -469.88195    -469.81557     960.044      -0.760
   806    252.90    -469.88081    -469.81544     960.044      -0.769
   807    260.51    -469.88274    -469.81540     960.044      -0.681
   808    275.76    -469.88672    -469.81543     960.044      -0.507
   809    292.16    -469.89104    -469.81552     960.044      -0.264
   810    303.37    -469.89402    -469.81559     960.044       0.021
   811    306.22    -469.89481    -469.81564     960.044       0.312
   812    302.27    -469.89375    -469.81562     960.044       0.568
   813    297.05    -469.89232    -469.81553     960.044       0.752
   814    296.93    -469.89226    -469.81550     960.044       0.837
   815    305.23    -469.89445    -469.81554     960.044       0.813
   816    320.08    -469.89842    -469.81567     960.044       0.682
   817    335.19    -469.90250    -469.81585     960.044       0.466
   818    343.21    -469.90471    -469.81599     960.044       0.196
   819    339.60    -469.90383    -469.81604     960.044      -0.092
   820    324.85    -469.90005    -469.81607     960.044      -0.363
   821    303.99    -469.89451    -469.81592     960.044      -0.584
   822    284.24    -469.88921    -469.81573     960.044      -0.732
   823    271.90    -469.88586    -469.81557     960.044      -0.791
   824    269.88    -469.88527    -469.81550     960.044      -0.754
   825    276.78    -469.88707    -469.81552     960.044      -0.626
   826    287.63    -469.88995    -469.81560     960.044      -0.419
   827    296.20    -469.89227    -469.81570     960.044      -0.154
   828    297.84    -469.89276    -469.81577     960.044       0.138
   829    291.99    -469.89121    -469.81573     960.044       0.419
   830    282.75    -469.88870    -469.81561     960.044       0.650
   831    277.00    -469.88710    -469.81549     960.044       0.797
   832    280.56    -469.88796    -469.81544     960.044       0.841
   833    294.70    -469.89167    -469.81548     960.044       0.774
   834    315.11    -469.89708    -469.81562     960.044       0.607
   835    333.88    -469.90210    -469.81579     960.044       0.367
   836    343.56    -469.90473    -469.81591     960.044       0.085
   837    340.76    -469.90405    -469.81596     960.044      -0.201
   838    327.39    -469.90051    -469.81588     960.044      -0.457
   839    309.47    -469.89575    -469.81575     960.044      -0.654
   840    294.19    -469.89169    -469.81564     960.044      -0.771
   841    286.87    -469.88974    -469.81558     960.044      -0.794
   842    288.90    -469.89029    -469.81561     960.044      -0.722
   843    297.31    -469.89257    -469.81572     960.044      -0.557
   844    306.16    -469.89501    -469.81586     960.044      -0.319
   845    309.30    -469.89593    -469.81597     960.044      -0.033
   846    303.38    -469.89443    -469.81600     960.044       0.267
   847    289.90    -469.89089    -469.81595     960.044       0.540
   848    274.92    -469.88688    -469.81582     960.044       0.747
   849    266.14    -469.88448    -469.81568     960.044       0.859
   850    268.88    -469.88513    -469.81562     960.044       0.856
   851    282.96    -469.88881    -469.81566     960.044       0.742
   852    302.66    -469.89400    -469.81576     960.044       0.534
   853    319.74    -469.89852    -469.81587     960.044       0.263
   854    327.70    -469.90062    -469.81591     960.044      -0.035
   855    324.80    -469.89984    -469.81587     960.044      -0.321
   856    314.49    -469.89705    -469.81576     960.044      -0.562
   857    303.24    -469.89403    -469.81564     960.044      -0.732
   858    297.35    -469.89242    -469.81555     960.044      -0.812
   859    300.15    -469.89313    -469.81554     960.044      -0.794
   860    310.52    -469.89591    -469.81563     960.044      -0.679
   861    323.36    -469.89939    -469.81580     960.044      -0.478
   862    331.73    -469.90175    -469.81600     960.044      -0.213
   863    330.08    -469.90147    -469.81615     960.044       0.084
   864    317.14    -469.89828    -469.81629     960.044       0.374
   865    296.93    -469.89289    -469.81613     960.044       0.620
   866    277.28    -469.88767    -469.81599     960.044       0.787
   867    266.17    -469.88469    -469.81588     960.044       0.851
   868    267.64    -469.88504    -469.81585     960.044       0.802
   869    279.71    -469.88820    -469.81589     960.044       0.650
   870    295.59    -469.89238    -469.81597     960.044       0.417
   871    307.49    -469.89551    -469.81602     960.044       0.136
   872    310.62    -469.89629    -469.81599     960.044      -0.156
   873    305.22    -469.89479    -469.81589     960.044      -0.424
   874    295.94    -469.89222    -469.81572     960.044      -0.636
   875    289.28    -469.89034    -469.81556     960.044      -0.769
   876    290.38    -469.89055    -469.81549     960.044      -0.808
   877    300.65    -469.89325    -469.81553     960.044      -0.748
   878    317.01    -469.89764    -469.81569     960.044      -0.594
   879    333.04    -469.90202    -469.81593     960.044      -0.364
   880    341.83    -469.90454    -469.81617     960.044      -0.083
   881    339.08    -469.90407    -469.81641     960.044       0.215
   882    325.24    -469.90037    -469.81629     960.044       0.490
   883    305.67    -469.89526    -469.81624     960.044       0.705
   884    288.21    -469.89067    -469.81616     960.044       0.830
   885    279.29    -469.88831    -469.81612     960.044       0.845
   886    280.65    -469.88869    -469.81614     960.044       0.751
   887    288.58    -469.89081    -469.81621     960.044       0.561
   888    296.34    -469.89287    -469.81627     960.044       0.303
   889    298.04    -469.89329    -469.81625     960.044       0.015
   890    291.84    -469.89157    -469.81613     960.044      -0.267
   891    280.75    -469.88849    -469.81592     960.044      -0.508
   892    270.75    -469.88574    -469.81575     960.044      -0.683
   893    267.90    -469.88482    -469.81556     960.044      -0.773
   894    275.57    -469.88673    -469.81549     960.044      -0.767
   895    292.80    -469.89122    -469.81552     960.044      -0.665
   896    314.53    -469.89697    -469.81566     960.044      -0.478
   897    333.48    -469.90205    -469.81585     960.044      -0.227
   898    343.22    -469.90474    -469.81601     960.044       0.056
   899    340.92    -469.90431    -469.81618     960.044       0.339
   900    328.74    -469.90119    -469.81620     960.044       0.583
   901    312.92    -469.89705    -469.81616     960.044       0.754
   902    300.70    -469.89386    -469.81612     960.044       0.825
   903    296.47    -469.89279    -469.81615     960.044       0.787
   904    299.46    -469.89365    -469.81623     960.044       0.646
   905    304.51    -469.89504    -469.81633     960.044       0.424
   906    305.35    -469.89530    -469.81637     960.044       0.154
   907    298.28    -469.89344    -469.81633     960.044      -0.129
   908    284.15    -469.88965    -469.81619     960.044      -0.389
   909    267.87    -469.88521    -469.81596     960.044      -0.597
   910    256.04    -469.88191    -469.81572     960.044      -0.731
   911    253.98    -469.88120    -469.81554     960.044      -0.776
   912    263.50    -469.88358    -469.81547     960.044      -0.726
   913    282.13    -469.88844    -469.81551     960.044      -0.589
   914    303.97    -469.89423    -469.81565     960.044      -0.375
   915    321.91    -469.89905    -469.81583     960.044      -0.107
   916    330.71    -469.90147    -469.81597     960.044       0.179
   917    329.36    -469.90114    -469.81599     960.044       0.449
   918    321.45    -469.89908    -469.81598     960.044       0.664
   919    313.29    -469.89696    -469.81597     960.044       0.793
   920    310.33    -469.89623    -469.81600     960.044       0.817
   921    314.09    -469.89730    -469.81610     960.044       0.733
   922    321.15    -469.89927    -469.81625     960.044       0.556
   923    325.25    -469.90047    -469.81639     960.044       0.310
   924    321.01    -469.89942    -469.81644     960.044       0.031
   925    307.01    -469.89574    -469.81637     960.044      -0.245
   926    286.64    -469.89028    -469.81618     960.044      -0.484
   927    266.47    -469.88486    -469.81597     960.044      -0.660
   928    253.39    -469.88128    -469.81578     960.044      -0.752
   929    251.76    -469.88072    -469.81564     960.044      -0.753
   930    261.68    -469.88325    -469.81560     960.044      -0.659
   931    279.00    -469.88777    -469.81565     960.044      -0.481
   932    296.98    -469.89252    -469.81575     960.044      -0.235
   933    309.10    -469.89574    -469.81584     960.044       0.050
   934    312.17    -469.89660    -469.81590     960.044       0.333
   935    307.92    -469.89549    -469.81589     960.044       0.578
   936    301.97    -469.89388    -469.81582     960.044       0.750
   937    300.75    -469.89352    -469.81578     960.044       0.823
   938    307.65    -469.89536    -469.81583     960.044       0.789
   939    320.78    -469.89889    -469.81597     960.044       0.651
   940    333.90    -469.90246    -469.81614     960.044       0.433
   941    339.83    -469.90412    -469.81627     960.044       0.165
   942    334.31    -469.90273    -469.81631     960.044      -0.117
   943    318.10    -469.89855    -469.81631     960.044      -0.377
   944    296.48    -469.89277    -469.81613     960.044      -0.586
   945    276.67    -469.88744    -469.81592     960.044      -0.723
   946    264.84    -469.88423    -469.81577     960.044      -0.771
   947    263.77    -469.88387    -469.81569     960.044      -0.727
   948    271.90    -469.88598    -469.81570     960.044      -0.594
   949    284.24    -469.88925    -469.81577     960.044      -0.384
   950    294.49    -469.89201    -469.81588     960.044      -0.120
   951    298.01    -469.89297    -469.81593     960.044       0.167
   952    294.25    -469.89196    -469.81589     960.044       0.438
   953    287.28    -469.89006    -469.81579     960.044       0.654
   954    283.64    -469.88902    -469.81569     960.044       0.788
   955    288.63    -469.89028    -469.81566     960.044       0.819
   956    303.06    -469.89408    -469.81574     960.044       0.743
   957    322.31    -469.89921    -469.81589     960.044       0.571
   958    338.62    -469.90360    -469.81606     960.044       0.331
   959    345.07    -469.90538    -469.81618     960.044       0.054
   960    338.95    -469.90391    -469.81629     960.044      -0.225
   961    322.86    -469.89958    -469.81611     960.044      -0.471
   962    303.24    -469.89437    -469.81598     960.044      -0.657
   963    287.42    -469.89017    -469.81586     960.044      -0.763
   964    280.58    -469.88833    -469.81580     960.044      -0.775
   965    283.68    -469.88916    -469.81583     960.044      -0.690
   966    293.21    -469.89172    -469.81592     960.044      -0.517
   967    302.84    -469.89434    -469.81605     960.044      -0.273
   968    306.37    -469.89534    -469.81614     960.044       0.013
   969    300.81    -469.89394    -469.81618     960.044       0.304
   970    288.20    -469.89060    -469.81610     960.044       0.564
   971    275.09    -469.88707    -469.81596     960.044       0.752
   972    269.26    -469.88544    -469.81583     960.044       0.842
   973    275.36    -469.88697    -469.81579     960.044       0.821
   974    292.10    -469.89137    -469.81586     960.044       0.691
   975    312.81    -469.89685    -469.81599     960.044       0.474
   976    328.95    -469.90114    -469.81610     960.044       0.202
   977    334.62    -469.90265    -469.81615     960.044      -0.088
   978    329.15    -469.90120    -469.81611     960.044      -0.359
   979    316.83    -469.89790    -469.81600     960.044      -0.582
   980    304.46    -469.89458    -469.81588     960.044      -0.731
   981    298.08    -469.89286    -469.81580     960.044      -0.791
   982    300.35    -469.89346    -469.81581     960.044      -0.754
   983    309.47    -469.89592    -469.81592     960.044      -0.625
   984    320.03    -469.89883    -469.81610     960.044      -0.415
   985    325.35    -469.90038    -469.81627     960.044      -0.149
   986    320.80    -469.89933    -469.81640     960.044       0.141
   987    306.34    -469.89558    -469.81639     960.044       0.416
   988    287.00    -469.89047    -469.81628     960.044       0.642
   989    270.74    -469.88613    -469.81614     960.044       0.786
   990    264.66    -469.88446    -469.81604     960.044       0.826
   991    271.17    -469.88613    -469.81603     960.044       0.757
   992    286.64    -469.89020    -469.81610     960.044       0.592
   993    303.53    -469.89465    -469.81618     960.044       0.356
   994    314.34    -469.89749    -469.81623     960.044       0.080
   995    315.33    -469.89773    -469.81622     960.044      -0.201
   996    307.93    -469.89569    -469.81609     960.044      -0.450
   997    297.59    -469.89286    -469.81593     960.044      -0.641
   998    290.78    -469.89098    -469.81581     960.044      -0.754
   999    292.11    -469.89127    -469.81575     960.044      -0.777
  1000    302.30    -469.89396    -469.81581     960.044      -0.708
  1001    317.80    -469.89812    -469.81597     960.044      -0.550
  1002    332.05    -469.90203    -469.81619     960.044      -0.321
  1003    338.43    -469.90388    -469.81640     960.044      -0.048
  1004    333.17    -469.90265    -469.81653     960.044       0.240
  1005    317.32    -469.89853    -469.81650     960.044       0.507
  1006    296.91    -469.89318    -469.81643     960.044       0.711
  1007    280.23    -469.88877    -469.81633     960.044       0.824
  1008    273.58    -469.88699    -469.81627     960.044       0.828
  1009    277.92    -469.88813    -469.81629     960.044       0.724
  1010    288.62    -469.89097    -469.81636     960.044       0.529
  1011    298.34    -469.89354    -469.81642     960.044       0.272
  1012    301.24    -469.89427    -469.81640     960.044      -0.012
  1013    295.95    -469.89276    -469.81625     960.044      -0.287
  1014    285.89    -469.88997    -469.81606     960.044      -0.520
  1015    277.25    -469.88755    -469.81588     960.044      -0.686
  1016    275.91    -469.88707    -469.81575     960.044      -0.767
  1017    284.73    -469.88931    -469.81571     960.044      -0.754
  1018    302.20    -469.89390    -469.81578     960.044      -0.648
  1019    322.84    -469.89940    -469.81595     960.044      -0.459
  1020    339.33    -469.90387    -469.81615     960.044      -0.207
  1021    345.50    -469.90565    -469.81633     960.044       0.079
  1022    339.25    -469.90417    -469.81647     960.044       0.361
  1023    323.90    -469.90018    -469.81645     960.044       0.600
  1024    306.64    -469.89566    -469.81640     960.044       0.761
  1025    294.88    -469.89259    -469.81636     960.044       0.821
  1026    292.26    -469.89195    -469.81640     960.044       0.773
  1027    296.94    -469.89325    -469.81648     960.044       0.626
  1028    303.01    -469.89490    -469.81657     960.044       0.402
  1029    304.08    -469.89521    -469.81661     960.044       0.131
  1030    296.96    -469.89331    -469.81655     960.044      -0.149
  1031    283.24    -469.88960    -469.81638     960.044      -0.405
  1032    268.35    -469.88552    -469.81615     960.044      -0.607
  1033    258.93    -469.88286    -469.81593     960.044      -0.734
  1034    259.87    -469.88296    -469.81578     960.044      -0.773
  1035    272.28    -469.88613    -469.81574     960.044      -0.718
  1036    292.83    -469.89153    -469.81583     960.044      -0.573
  1037    314.94    -469.89741    -469.81599     960.044      -0.355
  1038    331.41    -469.90186    -469.81618     960.044      -0.086
  1039    337.45    -469.90355    -469.81632     960.044       0.198
  1040    332.88    -469.90241    -469.81636     960.044       0.460
  1041    322.10    -469.89963    -469.81637     960.044       0.668
  1042    311.85    -469.89697    -469.81635     960.044       0.789
  1043    307.54    -469.89588    -469.81638     960.044       0.806
  1044    310.18    -469.89666    -469.81647     960.044       0.718
  1045    315.99    -469.89829    -469.81660     960.044       0.539
  1046    318.82    -469.89913    -469.81671     960.044       0.296
  1047    313.69    -469.89783    -469.81674     960.044       0.019
  1048    299.73    -469.89411    -469.81663     960.044      -0.254
  1049    280.72    -469.88900    -469.81643     960.044      -0.488
  1050    263.24    -469.88427    -469.81622     960.044      -0.659
  1051    253.69    -469.88161    -469.81603     960.044      -0.748
  1052    255.68    -469.88202    -469.81592     960.044      -0.743
  1053    268.43    -469.88530    -469.81591     960.044      -0.644
  1054    287.15    -469.89021    -469.81598     960.044      -0.461
  1055    304.97    -469.89492    -469.81608     960.044      -0.217
  1056    315.92    -469.89784    -469.81617     960.044       0.063
  1057    317.63    -469.89836    -469.81625     960.044       0.339
  1058    312.54    -469.89703    -469.81623     960.044       0.577
  1059    306.54    -469.89542    -469.81618     960.044       0.742
  1060    305.66    -469.89518    -469.81617     960.044       0.809
  1061    312.40    -469.89701    -469.81625     960.044       0.769
  1062    324.13    -469.90019    -469.81640     960.044       0.631
  1063    334.46    -469.90303    -469.81657     960.044       0.413
  1064    336.84    -469.90376    -469.81669     960.044       0.148
  1065    328.05    -469.90151    -469.81671     960.044      -0.128
  1066    309.82    -469.89669    -469.81660     960.044      -0.382
  1067    287.84    -469.89084    -469.81643     960.044      -0.585
  1068    269.22    -469.88583    -469.81624     960.044      -0.715
  1069    259.61    -469.88320    -469.81608     960.044      -0.758
  1070    261.09    -469.88350    -469.81601     960.044      -0.710
  1071    271.51    -469.88621    -469.81602     960.044      -0.573
  1072    285.52    -469.88991    -469.81610     960.044      -0.362
  1073    296.91    -469.89294    -469.81619     960.044      -0.100
  1074    301.45    -469.89417    -469.81624     960.044       0.182
  1075    299.00    -469.89352    -469.81623     960.044       0.446
  1076    293.66    -469.89206    -469.81615     960.044       0.657
  1077    291.51    -469.89144    -469.81608     960.044       0.783
  1078    297.11    -469.89288    -469.81608     960.044       0.807
  1079    310.50    -469.89644    -469.81617     960.044       0.725
  1080    326.84    -469.90082    -469.81633     960.044       0.551
  1081    338.92    -469.90410    -469.81648     960.044       0.309
  1082    340.89    -469.90471    -469.81658     960.044       0.032
  1083    331.34    -469.90251    -469.81686     960.044      -0.240
  1084    313.70    -469.89752    -469.81642     960.044      -0.477
  1085    294.42    -469.89244    -469.81633     960.044      -0.652
  1086    280.19    -469.88862    -469.81619     960.044      -0.747
  1087    275.16    -469.88726    -469.81613     960.044      -0.749
  1088    279.42    -469.88838    -469.81614     960.044      -0.657
  1089    289.05    -469.89095    -469.81623     960.044      -0.480
  1090    297.91    -469.89333    -469.81632     960.044      -0.237
  1091    300.60    -469.89407    -469.81636     960.044       0.044
  1092    295.19    -469.89270    -469.81639     960.044       0.327
  1093    284.53    -469.88987    -469.81632     960.044       0.574
  1094    275.05    -469.88729    -469.81619     960.044       0.748
  1095    273.41    -469.88676    -469.81608     960.044       0.826
  1096    282.71    -469.88916    -469.81607     960.044       0.794
  1097    300.52    -469.89385    -469.81616     960.044       0.660
  1098    320.02    -469.89903    -469.81630     960.044       0.445
  1099    333.56    -469.90266    -469.81643     960.044       0.177
  1100    336.39    -469.90342    -469.81647     960.044      -0.105
  1101    328.72    -469.90133    -469.81635     960.044      -0.368
  1102    315.11    -469.89774    -469.81628     960.044      -0.580
  1103    302.03    -469.89426    -469.81618     960.044      -0.719
  1104    294.91    -469.89236    -469.81612     960.044      -0.769
  1105    295.88    -469.89262    -469.81613     960.044      -0.726
  1106    302.97    -469.89455    -469.81623     960.044      -0.592
  1107    311.10    -469.89680    -469.81637     960.044      -0.382
  1108    314.41    -469.89779    -469.81651     960.044      -0.118
  1109    309.22    -469.89653    -469.81659     960.044       0.166
  1110    296.16    -469.89311    -469.81655     960.044       0.433
  1111    280.22    -469.88888    -469.81644     960.044       0.647
  1112    268.53    -469.88573    -469.81631     960.044       0.778
  1113    266.74    -469.88518    -469.81623     960.044       0.808
  1114    275.99    -469.88757    -469.81623     960.044       0.734
  1115    292.27    -469.89185    -469.81629     960.044       0.567
  1116    308.54    -469.89614    -469.81638     960.044       0.332
  1117    318.29    -469.89870    -469.81642     960.044       0.059
  1118    318.77    -469.89895    -469.81654     960.044      -0.214
  1119    311.81    -469.89690    -469.81630     960.044      -0.458
  1120    302.52    -469.89439    -469.81619     960.044      -0.643
  1121    296.76    -469.89278    -469.81607     960.044      -0.751
  1122    298.43    -469.89319    -469.81604     960.044      -0.769
  1123    307.72    -469.89567    -469.81612     960.044      -0.691
  1124    320.91    -469.89924    -469.81628     960.044      -0.527
  1125    331.83    -469.90226    -469.81648     960.044      -0.291
  1126    334.59    -469.90312    -469.81663     960.044      -0.013
  1127    326.52    -469.90109    -469.81668     960.044       0.272
  1128    309.82    -469.89684    -469.81675     960.044       0.528
  1129    290.86    -469.89186    -469.81667     960.044       0.718
  1130    277.18    -469.88822    -469.81656     960.044       0.815
  1131    273.75    -469.88728    -469.81651     960.044       0.806
  1132    280.44    -469.88904    -469.81654     960.044       0.692
  1133    292.36    -469.89219    -469.81661     960.044       0.493
  1134    302.62    -469.89490    -469.81667     960.044       0.233
  1135    306.10    -469.89577    -469.81664     960.044      -0.050
  1136    301.98    -469.89456    -469.81650     960.044      -0.319
  1137    293.70    -469.89227    -469.81634     960.044      -0.544
  1138    286.92    -469.89038    -469.81621     960.044      -0.699
  1139    286.79    -469.89026    -469.81612     960.044      -0.767
  1140    295.49    -469.89251    -469.81612     960.044      -0.741
  1141    311.10    -469.89665    -469.81622     960.044      -0.622
  1142    328.30    -469.90127    -469.81640     960.044      -0.423
  1143    340.54    -469.90464    -469.81661     960.044      -0.166
  1144    342.90    -469.90553    -469.81689     960.044       0.117
  1145    334.47    -469.90332    -469.81686     960.044       0.390
  1146    318.94    -469.89928    -469.81683     960.044       0.615
  1147    302.97    -469.89511    -469.81679     960.044       0.761
  1148    292.78    -469.89245    -469.81676     960.044       0.805
  1149    290.97    -469.89201    -469.81679     960.044       0.744
  1150    295.38    -469.89323    -469.81687     960.044       0.587
  1151    300.64    -469.89465    -469.81694     960.044       0.359
  1152    301.37    -469.89486    -469.81695     960.044       0.089
  1153    295.24    -469.89320    -469.81688     960.044      -0.184
  1154    284.02    -469.89011    -469.81669     960.044      -0.431
  1155    272.68    -469.88699    -469.81650     960.044      -0.622
  1156    267.05    -469.88534    -469.81631     960.044      -0.735
  1157    271.10    -469.88628    -469.81620     960.044      -0.758
  1158    285.04    -469.88989    -469.81620     960.044      -0.689
  1159    305.14    -469.89519    -469.81631     960.044      -0.533
  1160    325.07    -469.90052    -469.81649     960.044      -0.309
  1161    338.31    -469.90413    -469.81667     960.044      -0.039
  1162    341.03    -469.90496    -469.81680     960.044       0.240
  1163    333.80    -469.90319    -469.81690     960.044       0.492
  1164    321.30    -469.89996    -469.81690     960.044       0.684
  1165    309.97    -469.89701    -469.81688     960.044       0.786
  1166    304.61    -469.89565    -469.81690     960.044       0.786
  1167    305.84    -469.89604    -469.81698     960.044       0.684
  1168    309.96    -469.89722    -469.81709     960.044       0.496
  1169    311.40    -469.89767    -469.81717     960.044       0.249
  1170    305.95    -469.89626    -469.81717     960.044      -0.024
  1171    293.15    -469.89281    -469.81703     960.044      -0.288
  1172    276.60    -469.88834    -469.81684     960.044      -0.512
  1173    262.27    -469.88444    -469.81664     960.044      -0.669
  1174    255.82    -469.88260    -469.81647     960.044      -0.741
  1175    260.06    -469.88360    -469.81638     960.044      -0.722
  1176    273.80    -469.88715    -469.81637     960.044      -0.612
  1177    292.36    -469.89202    -469.81644     960.044      -0.423
  1178    309.37    -469.89652    -469.81655     960.044      -0.175
  1179    319.61    -469.89926    -469.81664     960.044       0.101
  1180    321.32    -469.89980    -469.81673     960.044       0.370
  1181    316.94    -469.89866    -469.81673     960.044       0.594
  1182    311.66    -469.89727    -469.81671     960.044       0.743
  1183    310.55    -469.89700    -469.81672     960.044       0.795
  1184    315.53    -469.89837    -469.81680     960.044       0.743
  1185    324.08    -469.90073    -469.81695     960.044       0.595
  1186    330.66    -469.90258    -469.81710     960.044       0.372
  1187    329.86    -469.90246    -469.81718     960.044       0.110
  1188    319.32    -469.89971    -469.81716     960.044      -0.160
  1189    300.97    -469.89485    -469.81704     960.044      -0.405
  1190    280.22    -469.88931    -469.81687     960.044      -0.599
  1191    263.61    -469.88482    -469.81667     960.044      -0.719
  1192    256.27    -469.88277    -469.81652     960.044      -0.751
  1193    259.82    -469.88361    -469.81644     960.044      -0.690
  1194    271.89    -469.88674    -469.81645     960.044      -0.545
  1195    287.16    -469.89076    -469.81652     960.044      -0.329
  1196    299.67    -469.89408    -469.81661     960.044      -0.067
  1197    305.43    -469.89563    -469.81668     960.044       0.211
  1198    304.22    -469.89533    -469.81668     960.044       0.467
  1199    299.75    -469.89412    -469.81663     960.044       0.666
  1200    297.59    -469.89351    -469.81658     960.044       0.779
  1201    301.89    -469.89462    -469.81658     960.044       0.790
  1202    312.81    -469.89753    -469.81667     960.044       0.698
  1203    326.09    -469.90112    -469.81682     960.044       0.515
  1204    335.31    -469.90364    -469.81696     960.044       0.271
  1205    335.36    -469.90374    -469.81705     960.044      -0.001
  1206    324.95    -469.90109    -469.81708     960.044      -0.267
  1207    307.25    -469.89634    -469.81692     960.044      -0.495
  1208    288.32    -469.89131    -469.81678     960.044      -0.659
  1209    274.44    -469.88759    -469.81664     960.044      -0.742
  1210    269.52    -469.88624    -469.81656     960.044      -0.733
  1211    273.65    -469.88729    -469.81655     960.044      -0.633
  1212    283.17    -469.88981    -469.81660     960.044      -0.451
  1213    292.39    -469.89226    -469.81667     960.044      -0.205
  1214    296.29    -469.89331    -469.81671     960.044       0.075
  1215    293.03    -469.89250    -469.81675     960.044       0.353
  1216    285.14    -469.89039    -469.81668     960.044       0.592
  1217    278.41    -469.88853    -469.81656     960.044       0.755
  1218    278.82    -469.88855    -469.81647     960.044       0.819
  1219    289.02    -469.89119    -469.81648     960.044       0.776
  1220    306.47    -469.89581    -469.81658     960.044       0.634
  1221    324.63    -469.90066    -469.81674     960.044       0.414
  1222    336.17    -469.90377    -469.81686     960.044       0.145
  1223    336.73    -469.90393    -469.81688     960.044      -0.134
  1224    326.82    -469.90127    -469.81678     960.044      -0.390
  1225    311.15    -469.89716    -469.81672     960.044      -0.594
  1226    296.27    -469.89320    -469.81661     960.044      -0.723
  1227    287.67    -469.89089    -469.81653     960.044      -0.763
  1228    287.57    -469.89085    -469.81651     960.044      -0.710
  1229    294.17    -469.89262    -469.81658     960.044      -0.569
  1230    302.52    -469.89490    -469.81670     960.044      -0.354
  1231    306.83    -469.89614    -469.81682     960.044      -0.089
  1232    303.32    -469.89529    -469.81688     960.044       0.195
  1233    292.30    -469.89240    -469.81684     960.044       0.459
  1234    278.44    -469.88869    -469.81671     960.044       0.666
  1235    268.59    -469.88601    -469.81658     960.044       0.789
  1236    268.34    -469.88586    -469.81649     960.044       0.808
  1237    278.89    -469.88860    -469.81650     960.044       0.722
  1238    296.22    -469.89315    -469.81658     960.044       0.546
  1239    313.17    -469.89763    -469.81667     960.044       0.302
  1240    323.09    -469.90025    -469.81673     960.044       0.024
  1241    323.14    -469.90030    -469.81677     960.044      -0.249
  1242    315.22    -469.89812    -469.81664     960.044      -0.487
  1243    304.62    -469.89525    -469.81650     960.044      -0.663
  1244    297.38    -469.89327    -469.81640     960.044      -0.758
  1245    297.44    -469.89326    -469.81637     960.044      -0.760
  1246    304.95    -469.89527    -469.81644     960.044      -0.670
  1247    316.20    -469.89833    -469.81658     960.044      -0.494
  1248    325.14    -469.90081    -469.81676     960.044      -0.251
  1249    326.13    -469.90119    -469.81688     960.044       0.031
  1250    316.84    -469.89889    -469.81699     960.044       0.315
  1251    299.75    -469.89446    -469.81697     960.044       0.565
  1252    281.46    -469.88962    -469.81686     960.044       0.745
  1253    269.57    -469.88641    -469.81673     960.044       0.827
  1254    268.83    -469.88617    -469.81668     960.044       0.800
  1255    278.55    -469.88872    -469.81671     960.044       0.669
  1256    293.04    -469.89254    -469.81679     960.044       0.455
  1257    304.85    -469.89566    -469.81685     960.044       0.189
  1258    308.81    -469.89666    -469.81682     960.044      -0.093
  1259    304.38    -469.89536    -469.81667     960.044      -0.353
  1260    295.48    -469.89293    -469.81654     960.044      -0.564
  1261    288.04    -469.89088    -469.81641     960.044      -0.705
  1262    287.29    -469.89059    -469.81632     960.044      -0.758
  1263    295.35    -469.89267    -469.81632     960.044      -0.719
  1264    310.24    -469.89662    -469.81642     960.044      -0.592
  1265    326.57    -469.90102    -469.81660     960.044      -0.389
  1266    337.76    -469.90412    -469.81680     960.044      -0.134
  1267    338.87    -469.90469    -469.81709     960.044       0.145
  1268    328.95    -469.90206    -469.81702     960.044       0.410
  1269    311.82    -469.89758    -469.81697     960.044       0.627
  1270    294.44    -469.89302    -469.81691     960.044       0.763
  1271    283.47    -469.89013    -469.81685     960.044       0.799
  1272    281.86    -469.88973    -469.81686     960.044       0.730
