# Step     T (K)     E_KS (eV)    E_tot (eV)   Vol (A^3)    P (kBar)
     1    281.86    -469.89077    -469.81791     960.044       0.685
     2    286.36    -469.89206    -469.81803     960.044       0.526
     3    292.08    -469.89360    -469.81810     960.044       0.305
     4    294.05    -469.89422    -469.81820     960.044       0.052
     5    290.10    -469.89311    -469.81812     960.044      -0.201
     6    281.80    -469.89084    -469.81799     960.044      -0.423
     7    273.52    -469.88857    -469.81786     960.044      -0.591
     8    270.24    -469.88763    -469.81777     960.044      -0.687
     9    275.27    -469.88891    -469.81775     960.044      -0.701
    10    288.70    -469.89243    -469.81780     960.044      -0.630
    11    307.12    -469.89731    -469.81791     960.044      -0.482
    12    324.83    -469.90201    -469.81804     960.044      -0.271
    13    336.01    -469.90499    -469.81813     960.044      -0.020
    14    337.17    -469.90534    -469.81818     960.044       0.240
    15    328.90    -469.90317    -469.81815     960.044       0.475
    16    315.74    -469.89969    -469.81807     960.044       0.652
    17    303.96    -469.89659    -469.81801     960.044       0.744
    18    298.29    -469.89513    -469.81802     960.044       0.738
    19    299.41    -469.89549    -469.81809     960.044       0.635
    20    303.82    -469.89671    -469.81817     960.044       0.453
    21    306.10    -469.89735    -469.81823     960.044       0.218
    22    302.08    -469.89630    -469.81820     960.044      -0.041
    23    291.19    -469.89335    -469.81807     960.044      -0.290
    24    276.82    -469.88949    -469.81794     960.044      -0.497
    25    264.66    -469.88624    -469.81782     960.044      -0.641
    26    260.08    -469.88500    -469.81777     960.044      -0.704
    27    265.68    -469.88646    -469.81778     960.044      -0.678
    28    280.22    -469.89030    -469.81786     960.044      -0.566
    29    299.02    -469.89527    -469.81797     960.044      -0.379
    30    315.87    -469.89972    -469.81807     960.044      -0.140
    31    325.70    -469.90230    -469.81810     960.044       0.123
    32    326.77    -469.90264    -469.81816     960.044       0.375
    33    321.47    -469.90120    -469.81810     960.044       0.582
    34    314.96    -469.89946    -469.81804     960.044       0.713
    35    312.22    -469.89874    -469.81803     960.044       0.751
    36    315.07    -469.89952    -469.81808     960.044       0.690
    37    321.10    -469.90117    -469.81816     960.044       0.540
    38    325.11    -469.90227    -469.81823     960.044       0.323
    39    322.19    -469.90151    -469.81822     960.044       0.072
    40    310.55    -469.89844    -469.81816     960.044      -0.183
    41    292.49    -469.89363    -469.81802     960.044      -0.411
    42    273.46    -469.88856    -469.81787     960.044      -0.584
    43    259.63    -469.88487    -469.81775     960.044      -0.685
    44    255.38    -469.88373    -469.81771     960.044      -0.700
    45    261.56    -469.88537    -469.81776     960.044      -0.631
    46    275.26    -469.88902    -469.81786     960.044      -0.483
    47    291.01    -469.89321    -469.81798     960.044      -0.271
    48    303.11    -469.89644    -469.81809     960.044      -0.020
    49    308.09    -469.89778    -469.81813     960.044       0.240
    50    306.38    -469.89730    -469.81809     960.044       0.473
    51    302.05    -469.89611    -469.81802     960.044       0.648
    52    300.53    -469.89567    -469.81798     960.044       0.739
    53    305.39    -469.89695    -469.81801     960.044       0.732
    54    316.05    -469.89979    -469.81809     960.044       0.631
    55    327.83    -469.90293    -469.81819     960.044       0.449
    56    334.52    -469.90471    -469.81824     960.044       0.214
    57    331.67    -469.90396    -469.81822     960.044      -0.044
    58    318.90    -469.90050    -469.81806     960.044      -0.291
    59    300.14    -469.89552    -469.81794     960.044      -0.497
    60    281.62    -469.89061    -469.81781     960.044      -0.639
    61    269.16    -469.88733    -469.81775     960.044      -0.702
    62    265.96    -469.88651    -469.81776     960.044      -0.678
    63    271.37    -469.88799    -469.81784     960.044      -0.568
    64    281.37    -469.89068    -469.81795     960.044      -0.383
    65    290.40    -469.89311    -469.81804     960.044      -0.144
    66    294.05    -469.89411    -469.81810     960.044       0.120
    67    291.23    -469.89341    -469.81812     960.044       0.374
    68    284.97    -469.89174    -469.81807     960.044       0.584
    69    280.82    -469.89061    -469.81801     960.044       0.721
    70    283.79    -469.89137    -469.81801     960.044       0.762
    71    295.20    -469.89439    -469.81807     960.044       0.704
    72    311.69    -469.89875    -469.81818     960.044       0.557
    73    326.81    -469.90275    -469.81826     960.044       0.342
    74    334.27    -469.90469    -469.81828     960.044       0.087
    75    331.05    -469.90377    -469.81819     960.044      -0.172
    76    318.77    -469.90060    -469.81820     960.044      -0.405
    77    302.52    -469.89617    -469.81797     960.044      -0.585
    78    288.52    -469.89241    -469.81783     960.044      -0.691
    79    281.38    -469.89051    -469.81777     960.044      -0.713
    80    282.34    -469.89078    -469.81780     960.044      -0.650
    81    288.89    -469.89257    -469.81789     960.044      -0.505
    82    296.07    -469.89454    -469.81800     960.044      -0.295
    83    298.70    -469.89531    -469.81809     960.044      -0.042
    84    293.95    -469.89412    -469.81813     960.044       0.223
    85    283.10    -469.89126    -469.81807     960.044       0.464
    86    271.25    -469.88811    -469.81799     960.044       0.647
    87    264.94    -469.88644    -469.81795     960.044       0.747
    88    268.60    -469.88740    -469.81797     960.044       0.750
    89    282.01    -469.89096    -469.81805     960.044       0.656
    90    300.26    -469.89578    -469.81816     960.044       0.479
    91    316.27    -469.89998    -469.81822     960.044       0.246
    92    324.29    -469.90205    -469.81822     960.044      -0.014
    93    322.42    -469.90151    -469.81816     960.044      -0.269
    94    313.24    -469.89897    -469.81799     960.044      -0.486
    95    302.19    -469.89597    -469.81785     960.044      -0.642
    96    294.83    -469.89398    -469.81777     960.044      -0.719
    97    294.39    -469.89387    -469.81777     960.044      -0.708
    98    300.46    -469.89552    -469.81785     960.044      -0.609
    99    309.20    -469.89789    -469.81796     960.044      -0.434
   100    315.02    -469.89951    -469.81808     960.044      -0.198
   101    313.26    -469.89911    -469.81813     960.044       0.071
   102    302.68    -469.89638    -469.81813     960.044       0.337
   103    286.52    -469.89214    -469.81807     960.044       0.567
   104    271.36    -469.88815    -469.81800     960.044       0.725
   105    263.79    -469.88616    -469.81797     960.044       0.788
   106    266.92    -469.88702    -469.81802     960.044       0.748
   107    278.72    -469.89018    -469.81813     960.044       0.611
   108    293.18    -469.89402    -469.81823     960.044       0.399
   109    303.65    -469.89675    -469.81826     960.044       0.142
   110    306.32    -469.89737    -469.81818     960.044      -0.123
   111    301.66    -469.89603    -469.81805     960.044      -0.368
   112    293.76    -469.89388    -469.81794     960.044      -0.563
   113    288.17    -469.89233    -469.81784     960.044      -0.688
   114    289.23    -469.89256    -469.81779     960.044      -0.729
   115    298.06    -469.89487    -469.81782     960.044      -0.680
   116    312.04    -469.89857    -469.81791     960.044      -0.547
   117    325.65    -469.90220    -469.81802     960.044      -0.342
   118    332.85    -469.90416    -469.81811     960.044      -0.090
   119    329.79    -469.90344    -469.81819     960.044       0.180
   120    316.80    -469.90002    -469.81812     960.044       0.435
   121    298.70    -469.89524    -469.81802     960.044       0.635
   122    282.61    -469.89102    -469.81796     960.044       0.753
   123    274.38    -469.88889    -469.81795     960.044       0.771
   124    275.67    -469.88928    -469.81802     960.044       0.689
   125    283.38    -469.89137    -469.81811     960.044       0.520
   126    291.64    -469.89357    -469.81818     960.044       0.287
   127    295.17    -469.89447    -469.81817     960.044       0.024
   128    292.04    -469.89361    -469.81811     960.044      -0.236
   129    284.38    -469.89148    -469.81797     960.044      -0.464
   130    277.10    -469.88947    -469.81784     960.044      -0.632
   131    275.42    -469.88894    -469.81774     960.044      -0.722
   132    282.31    -469.89071    -469.81773     960.044      -0.724
   133    297.05    -469.89460    -469.81781     960.044      -0.637
   134    315.36    -469.89946    -469.81794     960.044      -0.469
   135    330.95    -469.90364    -469.81809     960.044      -0.238
   136    338.19    -469.90563    -469.81821     960.044       0.029
   137    334.70    -469.90477    -469.81824     960.044       0.298
   138    322.59    -469.90148    -469.81809     960.044       0.534
   139    307.62    -469.89754    -469.81801     960.044       0.702
   140    296.32    -469.89459    -469.81799     960.044       0.778
   141    292.54    -469.89365    -469.81802     960.044       0.751
   142    295.47    -469.89449    -469.81811     960.044       0.627
   143    300.41    -469.89585    -469.81819     960.044       0.426
   144    301.73    -469.89623    -469.81823     960.044       0.174
   145    296.07    -469.89471    -469.81817     960.044      -0.093
   146    284.14    -469.89147    -469.81802     960.044      -0.344
   147    270.38    -469.88777    -469.81787     960.044      -0.546
   148    260.74    -469.88518    -469.81777     960.044      -0.677
   149    260.00    -469.88495    -469.81774     960.044      -0.726
   150    269.66    -469.88748    -469.81777     960.044      -0.685
   151    287.34    -469.89215    -469.81787     960.044      -0.557
   152    307.54    -469.89748    -469.81798     960.044      -0.358
   153    323.85    -469.90179    -469.81807     960.044      -0.109
   154    331.63    -469.90385    -469.81812     960.044       0.159
   155    330.00    -469.90345    -469.81815     960.044       0.412
   156    322.25    -469.90138    -469.81808     960.044       0.614
   157    314.01    -469.89919    -469.81802     960.044       0.736
   158    310.09    -469.89817    -469.81801     960.044       0.761
   159    311.79    -469.89867    -469.81806     960.044       0.686
   160    316.25    -469.89990    -469.81815     960.044       0.523
   161    318.30    -469.90048    -469.81819     960.044       0.296
   162    313.60    -469.89924    -469.81817     960.044       0.036
   163    301.12    -469.89598    -469.81813     960.044      -0.221
   164    283.75    -469.89134    -469.81799     960.044      -0.447
   165    267.03    -469.88687    -469.81784     960.044      -0.615
   166    256.73    -469.88409    -469.81773     960.044      -0.706
   167    256.42    -469.88399    -469.81770     960.044      -0.711
   168    266.06    -469.88654    -469.81776     960.044      -0.629
   169    282.03    -469.89079    -469.81788     960.044      -0.466
   170    298.49    -469.89518    -469.81802     960.044      -0.240
   171    309.95    -469.89824    -469.81812     960.044       0.022
   172    313.78    -469.89927    -469.81816     960.044       0.285
   173    311.35    -469.89855    -469.81807     960.044       0.515
   174    307.20    -469.89741    -469.81800     960.044       0.679
   175    306.46    -469.89721    -469.81798     960.044       0.755
   176    311.68    -469.89859    -469.81802     960.044       0.732
   177    321.24    -469.90115    -469.81811     960.044       0.614
   178    330.15    -469.90354    -469.81820     960.044       0.417
   179    332.75    -469.90425    -469.81823     960.044       0.173
   180    325.80    -469.90241    -469.81819     960.044      -0.087
   181    310.19    -469.89821    -469.81802     960.044      -0.331
   182    290.46    -469.89296    -469.81788     960.044      -0.529
   183    272.83    -469.88830    -469.81777     960.044      -0.659
   184    262.61    -469.88562    -469.81773     960.044      -0.708
   185    262.10    -469.88551    -469.81776     960.044      -0.669
   186    269.88    -469.88761    -469.81784     960.044      -0.545
   187    281.48    -469.89072    -469.81795     960.044      -0.349
   188    291.47    -469.89339    -469.81804     960.044      -0.103
   189    295.89    -469.89458    -469.81809     960.044       0.164
   190    294.21    -469.89415    -469.81809     960.044       0.417
   191    289.76    -469.89295    -469.81805     960.044       0.618
   192    287.86    -469.89242    -469.81801     960.044       0.741
   193    292.66    -469.89367    -469.81801     960.044       0.766
   194    304.54    -469.89681    -469.81808     960.044       0.691
   195    319.63    -469.90080    -469.81817     960.044       0.527
   196    331.69    -469.90398    -469.81823     960.044       0.300
   197    335.38    -469.90492    -469.81822     960.044       0.040
   198    328.84    -469.90339    -469.81838     960.044      -0.219
   199    314.48    -469.89936    -469.81806     960.044      -0.444
   200    297.66    -469.89488    -469.81793     960.044      -0.613
   201    284.13    -469.89125    -469.81780     960.044      -0.707
   202    277.82    -469.88958    -469.81776     960.044      -0.714
   203    279.31    -469.89000    -469.81780     960.044      -0.634
   204    285.74    -469.89176    -469.81789     960.044      -0.474
   205    292.17    -469.89353    -469.81800     960.044      -0.251
   206    294.02    -469.89409    -469.81808     960.044       0.007
   207    289.40    -469.89291    -469.81810     960.044       0.270
   208    280.29    -469.89050    -469.81805     960.044       0.503
   209    271.83    -469.88825    -469.81798     960.044       0.673
   210    269.75    -469.88768    -469.81795     960.044       0.756
   211    277.13    -469.88963    -469.81799     960.044       0.741
   212    292.54    -469.89371    -469.81809     960.044       0.631
   213    310.51    -469.89845    -469.81818     960.044       0.440
   214    324.22    -469.90205    -469.81823     960.044       0.196
   215    328.82    -469.90321    -469.81821     960.044      -0.067
   216    323.62    -469.90178    -469.81812     960.044      -0.315
   217    312.01    -469.89860    -469.81795     960.044      -0.521
   218    299.59    -469.89527    -469.81782     960.044      -0.661
   219    291.58    -469.89314    -469.81776     960.044      -0.720
   220    290.62    -469.89291    -469.81778     960.044      -0.692
   221    295.77    -469.89433    -469.81787     960.044      -0.576
   222    303.01    -469.89633    -469.81799     960.044      -0.385
   223    307.10    -469.89749    -469.81811     960.044      -0.140
   224    304.11    -469.89674    -469.81813     960.044       0.130
   225    293.57    -469.89400    -469.81811     960.044       0.391
   226    279.21    -469.89024    -469.81806     960.044       0.604
   227    267.28    -469.88710    -469.81800     960.044       0.741
   228    263.34    -469.88607    -469.81799     960.044       0.782
   229    269.37    -469.88768    -469.81805     960.044       0.721
   230    282.65    -469.89121    -469.81814     960.044       0.569
   231    297.29    -469.89507    -469.81822     960.044       0.347
   232    307.24    -469.89766    -469.81823     960.044       0.087
   233    309.32    -469.89813    -469.81816     960.044      -0.177
   234    304.52    -469.89676    -469.81804     960.044      -0.411
   235    297.05    -469.89471    -469.81792     960.044      -0.591
   236    292.12    -469.89334    -469.81782     960.044      -0.698
   237    293.46    -469.89365    -469.81778     960.044      -0.720
   238    301.60    -469.89579    -469.81782     960.044      -0.654
   239    313.54    -469.89896    -469.81791     960.044      -0.504
   240    323.87    -469.90175    -469.81803     960.044      -0.288
   241    327.21    -469.90270    -469.81812     960.044      -0.031
   242    320.75    -469.90107    -469.81815     960.044       0.234
   243    305.90    -469.89718    -469.81810     960.044       0.474
   244    287.95    -469.89245    -469.81801     960.044       0.654
   245    273.68    -469.88870    -469.81795     960.044       0.750
   246    268.10    -469.88727    -469.81796     960.044       0.748
   247    271.96    -469.88834    -469.81803     960.044       0.650
   248    281.63    -469.89092    -469.81812     960.044       0.469
   249    291.24    -469.89346    -469.81817     960.044       0.233
   250    295.90    -469.89466    -469.81816     960.044      -0.026
   251    294.08    -469.89411    -469.81809     960.044      -0.277
   252    288.04    -469.89242    -469.81795     960.044      -0.489
   253    282.45    -469.89084    -469.81783     960.044      -0.638
   254    281.94    -469.89064    -469.81776     960.044      -0.710
   255    288.94    -469.89246    -469.81777     960.044      -0.696
   256    302.46    -469.89604    -469.81785     960.044      -0.595
   257    318.37    -469.90028    -469.81798     960.044      -0.418
   258    330.97    -469.90367    -469.81811     960.044      -0.187
   259    335.47    -469.90494    -469.81821     960.044       0.074
   260    330.14    -469.90359    -469.81824     960.044       0.329
   261    317.28    -469.90009    -469.81807     960.044       0.548
   262    302.27    -469.89614    -469.81800     960.044       0.699
   263    291.06    -469.89323    -469.81799     960.044       0.758
   264    287.06    -469.89223    -469.81802     960.044       0.717
   265    289.42    -469.89292    -469.81810     960.044       0.586
   266    293.89    -469.89415    -469.81817     960.044       0.382
   267    295.43    -469.89457    -469.81819     960.044       0.134
   268    291.12    -469.89339    -469.81813     960.044      -0.125
   269    281.73    -469.89082    -469.81799     960.044      -0.361
   270    271.30    -469.88800    -469.81787     960.044      -0.549
   271    265.12    -469.88631    -469.81778     960.044      -0.667
   272    267.27    -469.88684    -469.81774     960.044      -0.701
   273    278.76    -469.88984    -469.81778     960.044      -0.648
   274    296.88    -469.89461    -469.81787     960.044      -0.513
   275    316.19    -469.89972    -469.81798     960.044      -0.309
   276    330.62    -469.90353    -469.81806     960.044      -0.062
   277    336.04    -469.90498    -469.81811     960.044       0.199
   278    332.13    -469.90398    -469.81812     960.044       0.439
   279    322.48    -469.90141    -469.81805     960.044       0.623
   280    312.68    -469.89882    -469.81799     960.044       0.727
   281    307.35    -469.89743    -469.81798     960.044       0.735
   282    307.64    -469.89756    -469.81803     960.044       0.646
   283    310.78    -469.89845    -469.81811     960.044       0.476
   284    311.87    -469.89877    -469.81815     960.044       0.249
   285    306.89    -469.89747    -469.81814     960.044      -0.005
   286    295.03    -469.89434    -469.81808     960.044      -0.254
   287    279.23    -469.89013    -469.81794     960.044      -0.467
   288    264.78    -469.88624    -469.81779     960.044      -0.619
   289    257.00    -469.88414    -469.81770     960.044      -0.694
   290    258.97    -469.88464    -469.81769     960.044      -0.685
   291    270.29    -469.88763    -469.81776     960.044      -0.593
   292    287.26    -469.89214    -469.81788     960.044      -0.425
   293    304.30    -469.89667    -469.81800     960.044      -0.202
   294    316.32    -469.89987    -469.81810     960.044       0.052
   295    320.77    -469.90106    -469.81814     960.044       0.306
   296    318.83    -469.90047    -469.81805     960.044       0.523
   297    314.68    -469.89934    -469.81800     960.044       0.673
   298    313.03    -469.89891    -469.81798     960.044       0.736
   299    316.34    -469.89980    -469.81802     960.044       0.703
   300    323.22    -469.90166    -469.81811     960.044       0.578
   301    329.19    -469.90328    -469.81819     960.044       0.380
   302    329.20    -469.90331    -469.81821     960.044       0.138
   303    320.56    -469.90102    -469.81815     960.044      -0.116
   304    304.39    -469.89668    -469.81799     960.044      -0.350
   305    285.26    -469.89160    -469.81786     960.044      -0.536
   306    269.16    -469.88734    -469.81776     960.044      -0.654
   307    260.98    -469.88519    -469.81772     960.044      -0.690
   308    262.63    -469.88565    -469.81776     960.044      -0.639
   309    272.35    -469.88825    -469.81785     960.044      -0.507
   310    285.51    -469.89176    -469.81795     960.044      -0.306
   311    296.70    -469.89473    -469.81803     960.044      -0.063
   312    302.16    -469.89618    -469.81807     960.044       0.195
   313    301.51    -469.89603    -469.81809     960.044       0.432
   314    297.95    -469.89506    -469.81804     960.044       0.616
   315    296.42    -469.89462    -469.81799     960.044       0.721
   316    300.78    -469.89575    -469.81800     960.044       0.732
   317    311.35    -469.89854    -469.81806     960.044       0.647
   318    324.44    -469.90201    -469.81814     960.044       0.479
   319    334.19    -469.90458    -469.81819     960.044       0.254
   320    335.63    -469.90495    -469.81818     960.044       0.002
   321    327.22    -469.90280    -469.81821     960.044      -0.245
   322    311.52    -469.89856    -469.81802     960.044      -0.456
   323    293.86    -469.89382    -469.81786     960.044      -0.609
   324    279.90    -469.89010    -469.81775     960.044      -0.688
   325    273.41    -469.88840    -469.81772     960.044      -0.684
   326    274.89    -469.88882    -469.81776     960.044      -0.597
   327    281.53    -469.89063    -469.81785     960.044      -0.434
   328    288.63    -469.89258    -469.81796     960.044      -0.214
   329    291.80    -469.89348    -469.81805     960.044       0.039
   330    289.18    -469.89283    -469.81807     960.044       0.294
   331    282.60    -469.89107    -469.81801     960.044       0.518
   332    276.92    -469.88954    -469.81795     960.044       0.676
   333    277.44    -469.88965    -469.81793     960.044       0.746
   334    286.73    -469.89210    -469.81798     960.044       0.716
   335    302.87    -469.89637    -469.81807     960.044       0.593
   336    320.09    -469.90091    -469.81816     960.044       0.396
   337    331.75    -469.90397    -469.81821     960.044       0.153
   338    333.50    -469.90439    -469.81818     960.044      -0.106
   339    325.33    -469.90215    -469.81805     960.044      -0.346
   340    311.28    -469.89837    -469.81790     960.044      -0.538
   341    297.24    -469.89462    -469.81778     960.044      -0.664
   342    288.39    -469.89229    -469.81774     960.044      -0.707
   343    287.04    -469.89197    -469.81777     960.044      -0.663
   344    291.87    -469.89331    -469.81786     960.044      -0.537
   345    298.65    -469.89518    -469.81798     960.044      -0.341
   346    302.20    -469.89619    -469.81806     960.044      -0.096
   347    298.85    -469.89534    -469.81808     960.044       0.166
   348    288.53    -469.89267    -469.81808     960.044       0.414
   349    275.13    -469.88915    -469.81803     960.044       0.614
   350    264.92    -469.88645    -469.81797     960.044       0.736
   351    263.36    -469.88604    -469.81796     960.044       0.763
   352    272.03    -469.88834    -469.81802     960.044       0.691
   353    287.68    -469.89249    -469.81812     960.044       0.531
   354    303.86    -469.89675    -469.81820     960.044       0.308
   355    314.37    -469.89948    -469.81821     960.044       0.051
   356    316.12    -469.89986    -469.81814     960.044      -0.206
   357    310.43    -469.89824    -469.81799     960.044      -0.432
   358    301.91    -469.89595    -469.81790     960.044      -0.601
   359    295.92    -469.89428    -469.81778     960.044      -0.695
   360    296.09    -469.89430    -469.81776     960.044      -0.704
   361    302.72    -469.89606    -469.81780     960.044      -0.627
   362    312.62    -469.89872    -469.81790     960.044      -0.472
   363    320.43    -469.90085    -469.81802     960.044      -0.253
   364    321.09    -469.90111    -469.81810     960.044       0.002
   365    312.37    -469.89889    -469.81814     960.044       0.263
   366    296.25    -469.89464    -469.81806     960.044       0.496
   367    278.47    -469.88996    -469.81798     960.044       0.666
   368    266.01    -469.88670    -469.81793     960.044       0.750
   369    263.49    -469.88607    -469.81795     960.044       0.735
   370    270.85    -469.88805    -469.81803     960.044       0.626
   371    283.49    -469.89142    -469.81813     960.044       0.438
   372    294.89    -469.89442    -469.81819     960.044       0.199
   373    300.04    -469.89574    -469.81817     960.044      -0.060
   374    297.77    -469.89507    -469.81809     960.044      -0.306
   375    291.01    -469.89317    -469.81794     960.044      -0.510
   376    284.96    -469.89148    -469.81781     960.044      -0.650
   377    284.48    -469.89129    -469.81775     960.044      -0.710
   378    291.78    -469.89320    -469.81777     960.044      -0.684
   379    305.39    -469.89682    -469.81787     960.044      -0.574
   380    320.63    -469.90090    -469.81801     960.044      -0.389
   381    331.49    -469.90384    -469.81814     960.044      -0.153
   382    333.23    -469.90447    -469.81833     960.044       0.108
   383    324.60    -469.90205    -469.81814     960.044       0.363
   384    308.81    -469.89791    -469.81808     960.044       0.573
   385    292.13    -469.89354    -469.81802     960.044       0.710
   386    280.88    -469.89060    -469.81799     960.044       0.756
   387    278.12    -469.88993    -469.81803     960.044       0.702
   388    282.26    -469.89108    -469.81812     960.044       0.557
   389    288.28    -469.89271    -469.81819     960.044       0.344
   390    290.87    -469.89339    -469.81820     960.044       0.094
   391    287.44    -469.89243    -469.81812     960.044      -0.160
   392    279.30    -469.89018    -469.81798     960.044      -0.387
   393    270.80    -469.88785    -469.81785     960.044      -0.563
   394    267.11    -469.88682    -469.81777     960.044      -0.667
   395    271.79    -469.88801    -469.81775     960.044      -0.689
   396    285.12    -469.89150    -469.81780     960.044      -0.625
   397    303.75    -469.89642    -469.81789     960.044      -0.483
   398    321.90    -469.90122    -469.81801     960.044      -0.276
   399    333.66    -469.90434    -469.81809     960.044      -0.029
   400    335.52    -469.90484    -469.81811     960.044       0.227
   401    328.11    -469.90292    -469.81810     960.044       0.457
   402    315.94    -469.89969    -469.81802     960.044       0.629
   403    305.02    -469.89682    -469.81797     960.044       0.719
   404    299.72    -469.89546    -469.81798     960.044       0.715
   405    300.52    -469.89573    -469.81804     960.044       0.618
   406    304.00    -469.89671    -469.81812     960.044       0.445
   407    305.06    -469.89702    -469.81816     960.044       0.218
   408    299.95    -469.89568    -469.81814     960.044      -0.031
   409    288.39    -469.89260    -469.81805     960.044      -0.270
   410    273.76    -469.88868    -469.81791     960.044      -0.474
   411    261.54    -469.88539    -469.81778     960.044      -0.618
   412    256.82    -469.88409    -469.81770     960.044      -0.686
   413    262.19    -469.88549    -469.81771     960.044      -0.669
   414    276.61    -469.88930    -469.81779     960.044      -0.570
   415    295.71    -469.89436    -469.81792     960.044      -0.398
   416    313.47    -469.89908    -469.81805     960.044      -0.171
   417    324.68    -469.90206    -469.81813     960.044       0.082
   418    327.27    -469.90272    -469.81812     960.044       0.329
   419    323.11    -469.90160    -469.81807     960.044       0.538
   420    316.91    -469.89995    -469.81803     960.044       0.679
   421    313.56    -469.89907    -469.81801     960.044       0.731
   422    315.33    -469.89957    -469.81805     960.044       0.687
   423    320.40    -469.90096    -469.81813     960.044       0.555
   424    324.07    -469.90198    -469.81820     960.044       0.354
   425    321.57    -469.90134    -469.81821     960.044       0.113
   426    310.93    -469.89852    -469.81814     960.044      -0.135
   427    293.99    -469.89398    -469.81798     960.044      -0.361
   428    275.65    -469.88910    -469.81784     960.044      -0.539
   429    261.76    -469.88543    -469.81776     960.044      -0.650
   430    256.73    -469.88410    -469.81773     960.044      -0.680
   431    261.76    -469.88544    -469.81777     960.044      -0.625
   432    274.37    -469.88879    -469.81787     960.044      -0.491
   433    289.45    -469.89280    -469.81797     960.044      -0.290
   434    301.39    -469.89596    -469.81805     960.044      -0.046
   435    306.64    -469.89735    -469.81808     960.044       0.210
   436    305.44    -469.89705    -469.81809     960.044       0.444
   437    301.68    -469.89602    -469.81803     960.044       0.624
   438    300.69    -469.89572    -469.81799     960.044       0.723
   439    306.06    -469.89712    -469.81800     960.044       0.726
   440    317.27    -469.90010    -469.81808     960.044       0.635
   441    329.77    -469.90342    -469.81817     960.044       0.463
   442    337.43    -469.90544    -469.81822     960.044       0.235
   443    335.79    -469.90500    -469.81819     960.044      -0.016
   444    324.22    -469.90193    -469.81812     960.044      -0.260
   445    306.18    -469.89709    -469.81795     960.044      -0.468
   446    287.51    -469.89213    -469.81781     960.044      -0.616
   447    273.97    -469.88854    -469.81772     960.044      -0.689
   448    268.98    -469.88724    -469.81771     960.044      -0.679
   449    272.46    -469.88820    -469.81777     960.044      -0.585
   450    281.05    -469.89053    -469.81787     960.044      -0.418
   451    289.76    -469.89289    -469.81798     960.044      -0.195
   452    294.22    -469.89411    -469.81805     960.044       0.059
   453    292.94    -469.89379    -469.81806     960.044       0.310
   454    288.15    -469.89251    -469.81802     960.044       0.526
   455    284.77    -469.89159    -469.81797     960.044       0.675
   456    287.58    -469.89231    -469.81797     960.044       0.736
   457    298.27    -469.89513    -469.81802     960.044       0.698
   458    314.11    -469.89931    -469.81811     960.044       0.569
   459    329.20    -469.90329    -469.81819     960.044       0.370
   460    337.42    -469.90544    -469.81821     960.044       0.128
   461    335.53    -469.90490    -469.81817     960.044      -0.124
   462    324.51    -469.90205    -469.81816     960.044      -0.357
   463    308.81    -469.89774    -469.81791     960.044      -0.544
   464    294.31    -469.89388    -469.81780     960.044      -0.664
   465    285.87    -469.89166    -469.81776     960.044      -0.702
   466    285.28    -469.89154    -469.81779     960.044      -0.653
   467    290.68    -469.89303    -469.81789     960.044      -0.523
   468    297.46    -469.89489    -469.81799     960.044      -0.323
   469    300.44    -469.89573    -469.81806     960.044      -0.077
   470    296.44    -469.89471    -469.81808     960.044       0.186
   471    286.19    -469.89206    -469.81808     960.044       0.429
   472    274.26    -469.88892    -469.81802     960.044       0.621
   473    266.95    -469.88697    -469.81797     960.044       0.734
   474    268.96    -469.88750    -469.81797     960.044       0.750
   475    280.66    -469.89060    -469.81805     960.044       0.669
   476    297.76    -469.89512    -469.81815     960.044       0.504
   477    313.58    -469.89929    -469.81822     960.044       0.280
   478    322.36    -469.90156    -469.81822     960.044       0.025
   479    321.93    -469.90133    -469.81811     960.044      -0.229
   480    314.30    -469.89920    -469.81796     960.044      -0.450
   481    304.36    -469.89653    -469.81785     960.044      -0.613
   482    297.43    -469.89465    -469.81776     960.044      -0.699
   483    296.76    -469.89447    -469.81775     960.044      -0.700
   484    302.20    -469.89593    -469.81781     960.044      -0.615
   485    310.28    -469.89813    -469.81792     960.044      -0.452
   486    315.75    -469.89965    -469.81803     960.044      -0.228
   487    314.12    -469.89931    -469.81810     960.044       0.031
   488    304.02    -469.89670    -469.81811     960.044       0.290
   489    288.28    -469.89254    -469.81802     960.044       0.516
   490    272.92    -469.88850    -469.81795     960.044       0.676
   491    264.26    -469.88623    -469.81792     960.044       0.746
   492    265.61    -469.88662    -469.81795     960.044       0.720
   493    275.63    -469.88930    -469.81804     960.044       0.601
   494    289.19    -469.89289    -469.81813     960.044       0.409
   495    300.07    -469.89574    -469.81817     960.044       0.168
   496    304.15    -469.89676    -469.81814     960.044      -0.088
   497    301.16    -469.89590    -469.81804     960.044      -0.329
   498    294.49    -469.89403    -469.81790     960.044      -0.525
   499    289.22    -469.89256    -469.81779     960.044      -0.655
   500    289.60    -469.89261    -469.81774     960.044      -0.705
   501    297.12    -469.89458    -469.81777     960.044      -0.670
   502    309.77    -469.89795    -469.81787     960.044      -0.553
   503    322.74    -469.90142    -469.81799     960.044      -0.365
   504    330.33    -469.90349    -469.81810     960.044      -0.126
   505    328.55    -469.90301    -469.81807     960.044       0.137
   506    317.15    -469.90010    -469.81811     960.044       0.388
   507    300.13    -469.89564    -469.81806     960.044       0.592
   508    284.02    -469.89141    -469.81799     960.044       0.721
   509    274.61    -469.88896    -469.81797     960.044       0.754
   510    274.07    -469.88887    -469.81802     960.044       0.689
   511    280.06    -469.89050    -469.81810     960.044       0.537
   512    287.36    -469.89246    -469.81817     960.044       0.321
   513    290.97    -469.89340    -469.81818     960.044       0.072
   514    288.71    -469.89273    -469.81809     960.044      -0.180
   515    282.07    -469.89086    -469.81794     960.044      -0.405
   516    275.24    -469.88898    -469.81783     960.044      -0.578
   517    273.06    -469.88834    -469.81776     960.044      -0.678
   518    278.66    -469.88978    -469.81774     960.044      -0.693
   519    291.92    -469.89326    -469.81780     960.044      -0.624
   520    309.28    -469.89786    -469.81790     960.044      -0.473
   521    325.10    -469.90205    -469.81801     960.044      -0.260
   522    333.97    -469.90442    -469.81809     960.044      -0.010
   523    333.12    -469.90428    -469.81817     960.044       0.247
   524    323.83    -469.90178    -469.81807     960.044       0.475
   525    310.83    -469.89835    -469.81799     960.044       0.643
   526    299.91    -469.89548    -469.81795     960.044       0.726
   527    294.83    -469.89419    -469.81797     960.044       0.713
   528    295.50    -469.89443    -469.81804     960.044       0.609
   529    298.34    -469.89524    -469.81811     960.044       0.429
   530    298.62    -469.89534    -469.81815     960.044       0.197
   531    293.28    -469.89393    -469.81811     960.044      -0.052
   532    282.60    -469.89106    -469.81801     960.044      -0.290
   533    270.08    -469.88769    -469.81787     960.044      -0.489
   534    260.80    -469.88518    -469.81776     960.044      -0.627
   535    259.22    -469.88471    -469.81770     960.044      -0.688
   536    267.19    -469.88679    -469.81772     960.044      -0.665
   537    283.08    -469.89099    -469.81781     960.044      -0.559
   538    302.31    -469.89608    -469.81793     960.044      -0.383
   539    319.07    -469.90052    -469.81804     960.044      -0.155
   540    328.67    -469.90306    -469.81810     960.044       0.097
   541    329.53    -469.90332    -469.81813     960.044       0.341
   542    323.81    -469.90177    -469.81806     960.044       0.544
   543    316.24    -469.89978    -469.81803     960.044       0.678
   544    311.42    -469.89851    -469.81800     960.044       0.725
   545    311.36    -469.89853    -469.81804     960.044       0.677
   546    314.38    -469.89938    -469.81811     960.044       0.541
   547    316.32    -469.89994    -469.81817     960.044       0.339
   548    312.99    -469.89909    -469.81817     960.044       0.098
   549    302.72    -469.89636    -469.81810     960.044      -0.150
   550    287.34    -469.89224    -469.81796     960.044      -0.375
   551    271.46    -469.88801    -469.81784     960.044      -0.550
   552    260.44    -469.88508    -469.81775     960.044      -0.655
   553    258.08    -469.88445    -469.81774     960.044      -0.678
   554    265.07    -469.88630    -469.81778     960.044      -0.616
   555    278.72    -469.88992    -469.81787     960.044      -0.475
   556    294.09    -469.89399    -469.81797     960.044      -0.269
   557    306.06    -469.89715    -469.81803     960.044      -0.024
   558    311.68    -469.89865    -469.81808     960.044       0.230
   559    311.48    -469.89860    -469.81808     960.044       0.458
   560    309.07    -469.89792    -469.81802     960.044       0.629
   561    308.96    -469.89786    -469.81799     960.044       0.717
   562    313.83    -469.89914    -469.81801     960.044       0.710
   563    322.81    -469.90154    -469.81809     960.044       0.611
   564    331.74    -469.90393    -469.81817     960.044       0.434
   565    335.50    -469.90493    -469.81820     960.044       0.207
   566    330.66    -469.90365    -469.81817     960.044      -0.042
   567    317.28    -469.90006    -469.81804     960.044      -0.281
   568    299.00    -469.89520    -469.81790     960.044      -0.481
   569    281.32    -469.89051    -469.81778     960.044      -0.621
   570    269.38    -469.88735    -469.81771     960.044      -0.685
   571    266.05    -469.88649    -469.81771     960.044      -0.668
   572    270.93    -469.88781    -469.81777     960.044      -0.567
   573    280.71    -469.89044    -469.81787     960.044      -0.395
   574    290.64    -469.89311    -469.81797     960.044      -0.169
   575    296.74    -469.89474    -469.81804     960.044       0.082
   576    297.67    -469.89502    -469.81807     960.044       0.328
   577    295.40    -469.89439    -469.81803     960.044       0.536
   578    294.07    -469.89401    -469.81798     960.044       0.674
   579    297.59    -469.89491    -469.81798     960.044       0.724
   580    307.17    -469.89743    -469.81802     960.044       0.679
   581    320.35    -469.90091    -469.81810     960.044       0.546
   582    332.06    -469.90401    -469.81816     960.044       0.344
   583    337.21    -469.90536    -469.81818     960.044       0.102
   584    333.23    -469.90428    -469.81814     960.044      -0.148
   585    321.26    -469.90114    -469.81809     960.044      -0.375
   586    305.60    -469.89689    -469.81789     960.044      -0.551
   587    291.63    -469.89318    -469.81780     960.044      -0.658
   588    283.50    -469.89105    -469.81776     960.044      -0.683
   589    282.56    -469.89084    -469.81779     960.044      -0.625
   590    286.96    -469.89205    -469.81787     960.044      -0.487
   591    292.58    -469.89359    -469.81795     960.044      -0.285
   592    295.07    -469.89429    -469.81801     960.044      -0.041
   593    292.00    -469.89353    -469.81805     960.044       0.214
   594    284.33    -469.89156    -469.81806     960.044       0.447
   595    276.13    -469.88940    -469.81801     960.044       0.625
   596    272.64    -469.88845    -469.81797     960.044       0.725
   597    277.38    -469.88969    -469.81799     960.044       0.730
   598    290.12    -469.89306    -469.81806     960.044       0.640
   599    306.71    -469.89744    -469.81816     960.044       0.471
   600    321.06    -469.90122    -469.81822     960.044       0.245
   601    328.15    -469.90304    -469.81821     960.044      -0.006
   602    326.29    -469.90241    -469.81806     960.044      -0.249
   603    317.55    -469.90004    -469.81795     960.044      -0.459
   604    306.48    -469.89708    -469.81785     960.044      -0.612
   605    297.96    -469.89481    -469.81779     960.044      -0.689
   606    295.18    -469.89408    -469.81777     960.044      -0.681
   607    298.20    -469.89491    -469.81782     960.044      -0.589
   608    304.05    -469.89651    -469.81791     960.044      -0.424
   609    308.19    -469.89768    -469.81801     960.044      -0.202
   610    306.72    -469.89737    -469.81808     960.044       0.049
   611    298.39    -469.89525    -469.81811     960.044       0.298
   612    285.53    -469.89184    -469.81802     960.044       0.514
   613    273.20    -469.88858    -469.81796     960.044       0.665
   614    266.79    -469.88690    -469.81793     960.044       0.731
   615    269.34    -469.88759    -469.81796     960.044       0.703
   616    279.82    -469.89038    -469.81804     960.044       0.582
   617    293.64    -469.89403    -469.81812     960.044       0.389
   618    305.12    -469.89703    -469.81816     960.044       0.151
   619    310.28    -469.89834    -469.81813     960.044      -0.101
   620    308.57    -469.89781    -469.81805     960.044      -0.336
   621    302.81    -469.89620    -469.81792     960.044      -0.526
   622    297.53    -469.89472    -469.81780     960.044      -0.650
   623    296.69    -469.89445    -469.81776     960.044      -0.696
   624    301.87    -469.89581    -469.81778     960.044      -0.659
   625    311.49    -469.89838    -469.81786     960.044      -0.539
   626    321.32    -469.90102    -469.81796     960.044      -0.348
   627    326.32    -469.90239    -469.81803     960.044      -0.108
   628    322.96    -469.90153    -469.81805     960.044       0.152
   629    311.13    -469.89853    -469.81810     960.044       0.398
   630    294.56    -469.89420    -469.81805     960.044       0.597
   631    279.32    -469.89019    -469.81798     960.044       0.721
   632    270.90    -469.88799    -469.81796     960.044       0.750
   633    271.51    -469.88819    -469.81800     960.044       0.682
   634    279.03    -469.89022    -469.81809     960.044       0.527
   635    288.38    -469.89271    -469.81816     960.044       0.310
   636    294.34    -469.89426    -469.81817     960.044       0.059
   637    294.30    -469.89417    -469.81809     960.044      -0.191
   638    289.34    -469.89275    -469.81795     960.044      -0.412
   639    283.33    -469.89109    -469.81785     960.044      -0.579
   640    280.91    -469.89040    -469.81778     960.044      -0.672
   641    285.25    -469.89151    -469.81777     960.044      -0.682
   642    296.55    -469.89448    -469.81782     960.044      -0.607
   643    311.67    -469.89848    -469.81791     960.044      -0.454
   644    325.45    -469.90214    -469.81801     960.044      -0.242
   645    332.81    -469.90413    -469.81810     960.044       0.004
   646    330.99    -469.90376    -469.81819     960.044       0.254
   647    320.93    -469.90103    -469.81807     960.044       0.475
   648    306.88    -469.89733    -469.81800     960.044       0.637
   649    294.39    -469.89406    -469.81796     960.044       0.717
   650    287.57    -469.89231    -469.81797     960.044       0.704
   651    287.08    -469.89224    -469.81803     960.044       0.599
   652    290.04    -469.89308    -469.81810     960.044       0.420
   653    291.95    -469.89361    -469.81813     960.044       0.191
   654    289.36    -469.89290    -469.81810     960.044      -0.057
   655    281.87    -469.89086    -469.81800     960.044      -0.292
   656    272.30    -469.88826    -469.81787     960.044      -0.489
   657    265.24    -469.88633    -469.81776     960.044      -0.624
   658    264.97    -469.88620    -469.81770     960.044      -0.684
   659    273.46    -469.88841    -469.81772     960.044      -0.661
   660    289.36    -469.89259    -469.81779     960.044      -0.556
   661    308.32    -469.89761    -469.81791     960.044      -0.381
   662    324.57    -469.90192    -469.81802     960.044      -0.153
   663    333.17    -469.90422    -469.81809     960.044       0.101
   664    332.29    -469.90401    -469.81811     960.044       0.345
   665    323.96    -469.90181    -469.81807     960.044       0.550
   666    313.10    -469.89894    -469.81800     960.044       0.684
   667    305.04    -469.89683    -469.81797     960.044       0.728
   668    302.62    -469.89623    -469.81800     960.044       0.677
   669    304.75    -469.89685    -469.81807     960.044       0.538
   670    307.24    -469.89757    -469.81814     960.044       0.332
   671    305.45    -469.89712    -469.81816     960.044       0.089
   672    297.00    -469.89488    -469.81810     960.044      -0.160
   673    283.21    -469.89116    -469.81795     960.044      -0.384
   674    268.49    -469.88723    -469.81783     960.044      -0.556
   675    258.31    -469.88452    -469.81775     960.044      -0.655
   676    256.73    -469.88409    -469.81772     960.044      -0.672
   677    264.70    -469.88619    -469.81776     960.044      -0.605
   678    279.71    -469.89016    -469.81785     960.044      -0.461
   679    296.83    -469.89468    -469.81795     960.044      -0.255
   680    310.68    -469.89834    -469.81802     960.044      -0.012
   681    317.77    -469.90032    -469.81817     960.044       0.238
   682    318.07    -469.90032    -469.81809     960.044       0.463
   683    314.86    -469.89942    -469.81803     960.044       0.629
   684    312.76    -469.89885    -469.81800     960.044       0.714
   685    315.03    -469.89945    -469.81801     960.044       0.704
   686    321.40    -469.90117    -469.81809     960.044       0.602
   687    328.13    -469.90299    -469.81817     960.044       0.423
   688    330.15    -469.90354    -469.81820     960.044       0.194
   689    324.02    -469.90191    -469.81815     960.044      -0.053
   690    309.77    -469.89812    -469.81804     960.044      -0.288
   691    291.00    -469.89314    -469.81791     960.044      -0.484
   692    273.40    -469.88846    -469.81779     960.044      -0.619
   693    262.34    -469.88553    -469.81771     960.044      -0.677
   694    260.76    -469.88511    -469.81770     960.044      -0.655
   695    268.12    -469.88708    -469.81777     960.044      -0.551
   696    280.80    -469.89046    -469.81787     960.044      -0.378
   697    293.64    -469.89389    -469.81798     960.044      -0.153
   698    302.10    -469.89615    -469.81805     960.044       0.094
   699    304.35    -469.89675    -469.81807     960.044       0.335
   700    302.11    -469.89613    -469.81803     960.044       0.536
   701    299.73    -469.89546    -469.81797     960.044       0.669
   702    301.64    -469.89593    -469.81795     960.044       0.715
   703    309.70    -469.89805    -469.81799     960.044       0.668
   704    321.82    -469.90127    -469.81807     960.044       0.534
   705    332.85    -469.90420    -469.81815     960.044       0.332
   706    337.25    -469.90536    -469.81818     960.044       0.091
   707    332.03    -469.90397    -469.81814     960.044      -0.158
   708    318.31    -469.90026    -469.81798     960.044      -0.380
   709    300.65    -469.89560    -469.81788     960.044      -0.553
   710    284.89    -469.89141    -469.81776     960.044      -0.655
   711    275.69    -469.88899    -469.81773     960.044      -0.677
   712    274.75    -469.88878    -469.81776     960.044      -0.616
   713    280.31    -469.89030    -469.81784     960.044      -0.477
   714    288.03    -469.89239    -469.81794     960.044      -0.274
   715    293.10    -469.89378    -469.81801     960.044      -0.032
   716    292.58    -469.89369    -469.81806     960.044       0.221
   717    287.02    -469.89226    -469.81807     960.044       0.453
   718    280.44    -469.89051    -469.81801     960.044       0.630
   719    278.29    -469.88990    -469.81796     960.044       0.726
   720    284.36    -469.89149    -469.81798     960.044       0.728
   721    298.38    -469.89520    -469.81807     960.044       0.635
   722    315.79    -469.89981    -469.81817     960.044       0.463
   723    329.99    -469.90354    -469.81824     960.044       0.235
   724    335.56    -469.90496    -469.81822     960.044      -0.019
   725    330.95    -469.90363    -469.81808     960.044      -0.265
   726    318.91    -469.90043    -469.81798     960.044      -0.472
   727    304.86    -469.89668    -469.81787     960.044      -0.620
   728    294.33    -469.89387    -469.81778     960.044      -0.692
   729    290.72    -469.89292    -469.81776     960.044      -0.681
   730    293.97    -469.89381    -469.81782     960.044      -0.587
   731    300.74    -469.89566    -469.81791     960.044      -0.418
   732    305.98    -469.89712    -469.81802     960.044      -0.196
   733    305.32    -469.89702    -469.81809     960.044       0.055
   734    297.29    -469.89496    -469.81811     960.044       0.304
   735    284.38    -469.89153    -469.81802     960.044       0.519
   736    272.22    -469.88831    -469.81794     960.044       0.668
   737    266.90    -469.88691    -469.81791     960.044       0.730
   738    271.70    -469.88819    -469.81795     960.044       0.696
   739    285.19    -469.89176    -469.81804     960.044       0.573
   740    301.98    -469.89619    -469.81813     960.044       0.379
   741    315.47    -469.89972    -469.81817     960.044       0.141
   742    321.10    -469.90116    -469.81815     960.044      -0.111
   743    318.29    -469.90035    -469.81806     960.044      -0.346
   744    310.33    -469.89814    -469.81791     960.044      -0.535
   745    302.43    -469.89597    -469.81779     960.044      -0.658
   746    299.14    -469.89506    -469.81774     960.044      -0.701
   747    302.35    -469.89592    -469.81776     960.044      -0.659
   748    310.45    -469.89810    -469.81784     960.044      -0.535
   749    319.02    -469.90043    -469.81796     960.044      -0.344
   750    322.72    -469.90147    -469.81804     960.044      -0.103
   751    317.92    -469.90027    -469.81808     960.044       0.157
   752    304.74    -469.89688    -469.81810     960.044       0.403
   753    287.45    -469.89233    -469.81803     960.044       0.601
   754    272.74    -469.88846    -469.81795     960.044       0.723
   755    266.44    -469.88682    -469.81794     960.044       0.750
   756    270.35    -469.88789    -469.81801     960.044       0.678
   757    281.36    -469.89084    -469.81811     960.044       0.520
   758    293.32    -469.89402    -469.81819     960.044       0.301
   759    300.44    -469.89586    -469.81820     960.044       0.050
   760    300.17    -469.89569    -469.81810     960.044      -0.201
   761    294.11    -469.89399    -469.81796     960.044      -0.422
   762    286.92    -469.89205    -469.81788     960.044      -0.588
   763    283.86    -469.89116    -469.81778     960.044      -0.679
   764    288.30    -469.89230    -469.81777     960.044      -0.688
   765    300.11    -469.89540    -469.81782     960.044      -0.610
   766    315.61    -469.89951    -469.81792     960.044      -0.456
   767    329.06    -469.90310    -469.81803     960.044      -0.242
   768    334.90    -469.90469    -469.81812     960.044       0.008
   769    330.33    -469.90355    -469.81816     960.044       0.263
   770    316.84    -469.89999    -469.81808     960.044       0.488
   771    299.73    -469.89546    -469.81798     960.044       0.653
   772    285.62    -469.89178    -469.81795     960.044       0.732
   773    279.13    -469.89011    -469.81796     960.044       0.715
   774    280.50    -469.89054    -469.81803     960.044       0.605
   775    285.94    -469.89203    -469.81811     960.044       0.419
   776    290.03    -469.89312    -469.81814     960.044       0.186
   777    288.97    -469.89280    -469.81810     960.044      -0.066
   778    282.46    -469.89103    -469.81801     960.044      -0.304
   779    273.71    -469.88864    -469.81788     960.044      -0.501
   780    267.70    -469.88696    -469.81776     960.044      -0.637
   781    268.81    -469.88719    -469.81770     960.044      -0.695
   782    278.76    -469.88979    -469.81772     960.044      -0.669
   783    295.64    -469.89424    -469.81781     960.044      -0.560
   784    314.45    -469.89923    -469.81794     960.044      -0.378
   785    329.05    -469.90313    -469.81807     960.044      -0.146
   786    334.65    -469.90468    -469.81817     960.044       0.110
   787    330.03    -469.90345    -469.81813     960.044       0.359
   788    318.21    -469.90030    -469.81804     960.044       0.565
   789    305.19    -469.89687    -469.81797     960.044       0.699
   790    296.75    -469.89467    -469.81796     960.044       0.741
   791    295.33    -469.89436    -469.81801     960.044       0.685
   792    298.88    -469.89536    -469.81810     960.044       0.542
   793    302.31    -469.89633    -469.81817     960.044       0.332
   794    300.64    -469.89590    -469.81819     960.044       0.086
   795    291.82    -469.89354    -469.81810     960.044      -0.165
   796    277.82    -469.88976    -469.81794     960.044      -0.391
   797    263.70    -469.88598    -469.81781     960.044      -0.565
   798    255.24    -469.88371    -469.81773     960.044      -0.666
   799    256.35    -469.88398    -469.81771     960.044      -0.686
   800    267.52    -469.88692    -469.81777     960.044      -0.618
   801    285.43    -469.89165    -469.81787     960.044      -0.472
   802    304.32    -469.89665    -469.81798     960.044      -0.262
   803    318.32    -469.90034    -469.81805     960.044      -0.014
   804    323.97    -469.90184    -469.81809     960.044       0.242
   805    321.79    -469.90127    -469.81809     960.044       0.470
   806    315.87    -469.89968    -469.81802     960.044       0.638
   807    311.53    -469.89852    -469.81798     960.044       0.723
   808    312.11    -469.89869    -469.81801     960.044       0.713
   809    317.10    -469.90005    -469.81808     960.044       0.610
   810    322.42    -469.90150    -469.81815     960.044       0.431
   811    322.88    -469.90164    -469.81817     960.044       0.199
   812    315.19    -469.89960    -469.81812     960.044      -0.052
   813    299.86    -469.89557    -469.81805     960.044      -0.291
   814    281.05    -469.89056    -469.81791     960.044      -0.490
   815    264.66    -469.88619    -469.81777     960.044      -0.628
   816    255.90    -469.88384    -469.81769     960.044      -0.688
   817    257.28    -469.88420    -469.81769     960.044      -0.666
   818    267.64    -469.88695    -469.81777     960.044      -0.561
   819    282.65    -469.89095    -469.81788     960.044      -0.385
   820    296.67    -469.89469    -469.81800     960.044      -0.157
   821    305.09    -469.89695    -469.81808     960.044       0.097
   822    306.48    -469.89734    -469.81812     960.044       0.345
   823    303.31    -469.89642    -469.81801     960.044       0.551
   824    300.61    -469.89564    -469.81793     960.044       0.687
   825    302.99    -469.89627    -469.81794     960.044       0.733
   826    311.74    -469.89858    -469.81800     960.044       0.682
   827    323.88    -469.90182    -469.81809     960.044       0.543
   828    333.63    -469.90442    -469.81817     960.044       0.337
   829    335.53    -469.90493    -469.81819     960.044       0.093
   830    327.31    -469.90274    -469.81813     960.044      -0.158
   831    310.95    -469.89833    -469.81794     960.044      -0.385
   832    291.72    -469.89323    -469.81782     960.044      -0.560
   833    275.80    -469.88902    -469.81772     960.044      -0.664
   834    267.74    -469.88691    -469.81770     960.044      -0.687
   835    268.84    -469.88724    -469.81774     960.044      -0.626
   836    276.73    -469.88938    -469.81784     960.044      -0.484
   837    286.54    -469.89202    -469.81795     960.044      -0.277
   838    293.23    -469.89382    -469.81801     960.044      -0.030
   839    294.03    -469.89406    -469.81805     960.044       0.228
   840    289.87    -469.89297    -469.81804     960.044       0.463
   841    285.02    -469.89166    -469.81798     960.044       0.641
   842    284.83    -469.89159    -469.81795     960.044       0.737
   843    292.50    -469.89360    -469.81799     960.044       0.736
   844    306.96    -469.89743    -469.81807     960.044       0.640
   845    323.26    -469.90173    -469.81817     960.044       0.463
   846    334.95    -469.90480    -469.81821     960.044       0.230
   847    337.41    -469.90539    -469.81817     960.044      -0.027
   848    329.98    -469.90349    -469.81819     960.044      -0.275
   849    315.99    -469.89969    -469.81800     960.044      -0.487
   850    301.11    -469.89570    -469.81786     960.044      -0.637
   851    290.77    -469.89292    -469.81776     960.044      -0.708
   852    287.94    -469.89217    -469.81774     960.044      -0.693
   853    291.95    -469.89326    -469.81779     960.044      -0.592
   854    298.99    -469.89518    -469.81789     960.044      -0.416
   855    303.85    -469.89654    -469.81799     960.044      -0.183
   856    302.46    -469.89624    -469.81805     960.044       0.078
   857    294.12    -469.89412    -469.81808     960.044       0.335
   858    282.26    -469.89093    -469.81797     960.044       0.550
   859    272.94    -469.88844    -469.81788     960.044       0.694
   860    271.74    -469.88813    -469.81788     960.044       0.746
   861    280.64    -469.89049    -469.81794     960.044       0.701
   862    296.79    -469.89476    -469.81804     960.044       0.565
   863    313.98    -469.89929    -469.81813     960.044       0.359
   864    325.68    -469.90235    -469.81816     960.044       0.109
   865    328.19    -469.90296    -469.81811     960.044      -0.149
   866    322.11    -469.90126    -469.81799     960.044      -0.384
   867    311.64    -469.89841    -469.81784     960.044      -0.569
   868    302.35    -469.89589    -469.81773     960.044      -0.684
   869    298.56    -469.89488    -469.81770     960.044      -0.715
   870    301.50    -469.89568    -469.81774     960.044      -0.659
   871    308.85    -469.89768    -469.81784     960.044      -0.521
   872    315.83    -469.89961    -469.81796     960.044      -0.314
   873    317.37    -469.90010    -469.81805     960.044      -0.062
   874    310.70    -469.89841    -469.81809     960.044       0.203
   875    297.04    -469.89481    -469.81802     960.044       0.448
   876    281.34    -469.89067    -469.81794     960.044       0.639
   877    270.04    -469.88772    -469.81791     960.044       0.746
   878    267.80    -469.88716    -469.81793     960.044       0.756
   879    274.94    -469.88908    -469.81801     960.044       0.668
   880    287.44    -469.89241    -469.81811     960.044       0.496
   881    299.14    -469.89549    -469.81816     960.044       0.263
   882    304.97    -469.89698    -469.81814     960.044       0.003
   883    303.44    -469.89648    -469.81804     960.044      -0.251
   884    297.00    -469.89470    -469.81792     960.044      -0.469
   885    290.55    -469.89292    -469.81781     960.044      -0.626
   886    288.89    -469.89242    -469.81774     960.044      -0.705
   887    294.53    -469.89387    -469.81773     960.044      -0.699
   888    306.49    -469.89702    -469.81779     960.044      -0.608
   889    320.60    -469.90076    -469.81789     960.044      -0.439
   890    331.08    -469.90357    -469.81798     960.044      -0.211
   891    332.98    -469.90413    -469.81805     960.044       0.050
   892    324.62    -469.90210    -469.81818     960.044       0.311
   893    308.69    -469.89780    -469.81801     960.044       0.536
   894    291.24    -469.89320    -469.81791     960.044       0.692
   895    278.77    -469.88995    -469.81789     960.044       0.757
   896    274.93    -469.88899    -469.81792     960.044       0.723
   897    278.91    -469.89010    -469.81800     960.044       0.595
   898    286.18    -469.89205    -469.81807     960.044       0.394
   899    291.34    -469.89341    -469.81810     960.044       0.148
   900    290.95    -469.89327    -469.81806     960.044      -0.111
   901    285.28    -469.89171    -469.81796     960.044      -0.350
   902    277.82    -469.88965    -469.81783     960.044      -0.544
   903    273.41    -469.88840    -469.81772     960.044      -0.671
   904    275.97    -469.88901    -469.81767     960.044      -0.717
   905    286.58    -469.89179    -469.81771     960.044      -0.674
   906    302.85    -469.89610    -469.81781     960.044      -0.549
   907    319.67    -469.90059    -469.81795     960.044      -0.353
   908    331.22    -469.90370    -469.81808     960.044      -0.106
   909    333.49    -469.90437    -469.81816     960.044       0.160
   910    326.26    -469.90240    -469.81806     960.044       0.412
   911    313.26    -469.89896    -469.81798     960.044       0.613
   912    300.47    -469.89561    -469.81793     960.044       0.736
   913    292.91    -469.89366    -469.81794     960.044       0.760
   914    292.05    -469.89350    -469.81800     960.044       0.686
   915    295.25    -469.89442    -469.81809     960.044       0.524
   916    297.57    -469.89507    -469.81815     960.044       0.300
   917    294.77    -469.89433    -469.81813     960.044       0.044
   918    285.69    -469.89188    -469.81802     960.044      -0.211
   919    272.88    -469.88842    -469.81788     960.044      -0.433
   920    261.30    -469.88532    -469.81777     960.044      -0.600
   921    256.12    -469.88391    -469.81770     960.044      -0.691
   922    260.44    -469.88502    -469.81770     960.044      -0.695
   923    273.90    -469.88856    -469.81775     960.044      -0.612
   924    292.71    -469.89352    -469.81785     960.044      -0.451
   925    311.04    -469.89836    -469.81795     960.044      -0.229
   926    323.40    -469.90162    -469.81802     960.044       0.027
   927    326.93    -469.90263    -469.81811     960.044       0.286
   928    322.68    -469.90147    -469.81805     960.044       0.512
   929    314.97    -469.89940    -469.81798     960.044       0.673
   930    308.99    -469.89783    -469.81795     960.044       0.745
   931    307.83    -469.89755    -469.81797     960.044       0.720
   932    310.85    -469.89839    -469.81803     960.044       0.601
   933    314.15    -469.89931    -469.81810     960.044       0.406
   934    313.01    -469.89903    -469.81811     960.044       0.164
   935    304.71    -469.89684    -469.81806     960.044      -0.092
   936    290.07    -469.89298    -469.81800     960.044      -0.331
   937    273.11    -469.88846    -469.81786     960.044      -0.525
   938    259.34    -469.88476    -469.81772     960.044      -0.653
   939    253.40    -469.88316    -469.81766     960.044      -0.703
   940    257.26    -469.88417    -469.81767     960.044      -0.667
   941    269.36    -469.88738    -469.81775     960.044      -0.549
   942    285.31    -469.89163    -469.81787     960.044      -0.360
   943    299.66    -469.89545    -469.81799     960.044      -0.122
   944    308.28    -469.89776    -469.81806     960.044       0.138
   945    310.19    -469.89821    -469.81803     960.044       0.384
   946    307.97    -469.89758    -469.81797     960.044       0.583
   947    306.21    -469.89709    -469.81793     960.044       0.706
   948    308.71    -469.89774    -469.81794     960.044       0.738
   949    316.11    -469.89972    -469.81800     960.044       0.670
   950    325.36    -469.90220    -469.81809     960.044       0.517
   951    331.31    -469.90380    -469.81815     960.044       0.302
   952    329.54    -469.90334    -469.81815     960.044       0.053
   953    318.71    -469.90045    -469.81806     960.044      -0.196
   954    301.27    -469.89576    -469.81788     960.044      -0.416
   955    282.41    -469.89077    -469.81776     960.044      -0.583
   956    267.90    -469.88694    -469.81768     960.044      -0.676
   957    261.75    -469.88534    -469.81767     960.044      -0.686
   958    264.70    -469.88616    -469.81773     960.044      -0.611
   959    274.16    -469.88870    -469.81782     960.044      -0.459
   960    285.36    -469.89169    -469.81792     960.044      -0.244
   961    293.48    -469.89385    -469.81798     960.044       0.008
   962    295.94    -469.89453    -469.81803     960.044       0.266
   963    293.58    -469.89391    -469.81801     960.044       0.496
   964    290.38    -469.89301    -469.81794     960.044       0.663
   965    291.20    -469.89321    -469.81793     960.044       0.743
   966    298.79    -469.89520    -469.81796     960.044       0.726
   967    312.01    -469.89869    -469.81804     960.044       0.614
   968    326.18    -469.90244    -469.81812     960.044       0.425
   969    335.41    -469.90485    -469.81814     960.044       0.184
   970    335.59    -469.90486    -469.81811     960.044      -0.077
   971    326.41    -469.90245    -469.81807     960.044      -0.323
   972    311.35    -469.89842    -469.81794     960.044      -0.526
   973    296.00    -469.89429    -469.81777     960.044      -0.662
   974    285.54    -469.89150    -469.81769     960.044      -0.715
   975    282.54    -469.89072    -469.81768     960.044      -0.681
   976    286.07    -469.89170    -469.81775     960.044      -0.562
   977    292.30    -469.89341    -469.81785     960.044      -0.371
   978    296.45    -469.89458    -469.81795     960.044      -0.131
   979    295.09    -469.89429    -469.81801     960.044       0.131
   980    288.02    -469.89244    -469.81799     960.044       0.381
   981    278.69    -469.88997    -469.81793     960.044       0.584
   982    272.64    -469.88836    -469.81788     960.044       0.713
   983    274.58    -469.88886    -469.81788     960.044       0.749
   984    285.67    -469.89179    -469.81794     960.044       0.688
   985    302.63    -469.89627    -469.81804     960.044       0.538
   986    319.25    -469.90065    -469.81812     960.044       0.323
   987    329.40    -469.90329    -469.81814     960.044       0.072
   988    329.86    -469.90336    -469.81809     960.044      -0.184
   989    321.70    -469.90111    -469.81794     960.044      -0.412
   990    309.38    -469.89778    -469.81780     960.044      -0.587
   991    298.48    -469.89487    -469.81771     960.044      -0.689
   992    293.24    -469.89349    -469.81768     960.044      -0.709
   993    294.85    -469.89396    -469.81773     960.044      -0.643
   994    301.18    -469.89569    -469.81783     960.044      -0.497
   995    307.67    -469.89749    -469.81795     960.044      -0.285
   996    309.46    -469.89803    -469.81803     960.044      -0.032
   997    303.77    -469.89657    -469.81804     960.044       0.233
   998    291.53    -469.89338    -469.81802     960.044       0.474
   999    277.37    -469.88965    -469.81795     960.044       0.659
  1000    267.53    -469.88706    -469.81790     960.044       0.759
  1001    266.71    -469.88686    -469.81791     960.044       0.760
  1002    275.44    -469.88919    -469.81798     960.044       0.662
  1003    289.76    -469.89298    -469.81808     960.044       0.482
  1004    303.34    -469.89656    -469.81814     960.044       0.242
  1005    310.75    -469.89846    -469.81812     960.044      -0.023
  1006    310.19    -469.89821    -469.81803     960.044      -0.278
  1007    303.99    -469.89648    -469.81789     960.044      -0.494
  1008    297.06    -469.89457    -469.81778     960.044      -0.644
  1009    294.31    -469.89378    -469.81770     960.044      -0.715
  1010    298.34    -469.89482    -469.81769     960.044      -0.701
  1011    308.35    -469.89746    -469.81775     960.044      -0.601
  1012    320.35    -469.90067    -469.81785     960.044      -0.426
  1013    328.74    -469.90294    -469.81796     960.044      -0.194
  1014    328.72    -469.90302    -469.81804     960.044       0.068
  1015    318.83    -469.90053    -469.81811     960.044       0.327
  1016    301.94    -469.89602    -469.81797     960.044       0.548
  1017    284.27    -469.89137    -469.81789     960.044       0.701
  1018    272.53    -469.88830    -469.81785     960.044       0.762
  1019    270.52    -469.88782    -469.81789     960.044       0.722
  1020    277.29    -469.88965    -469.81797     960.044       0.589
  1021    287.81    -469.89246    -469.81806     960.044       0.382
  1022    295.93    -469.89459    -469.81809     960.044       0.130
  1023    297.64    -469.89500    -469.81805     960.044      -0.132
  1024    292.92    -469.89367    -469.81795     960.044      -0.372
  1025    285.45    -469.89159    -469.81780     960.044      -0.562
  1026    280.54    -469.89021    -469.81769     960.044      -0.681
  1027    282.38    -469.89065    -469.81765     960.044      -0.719
  1028    292.25    -469.89324    -469.81769     960.044      -0.669
  1029    307.82    -469.89738    -469.81780     960.044      -0.536
  1030    323.91    -469.90168    -469.81794     960.044      -0.334
  1031    334.62    -469.90457    -469.81807     960.044      -0.086
  1032    335.84    -469.90508    -469.81826     960.044       0.178
  1033    327.15    -469.90261    -469.81804     960.044       0.425
  1034    312.34    -469.89871    -469.81797     960.044       0.620
  1035    297.59    -469.89485    -469.81792     960.044       0.735
  1036    288.43    -469.89247    -469.81791     960.044       0.753
  1037    286.82    -469.89211    -469.81797     960.044       0.674
  1038    290.42    -469.89313    -469.81805     960.044       0.510
  1039    294.13    -469.89415    -469.81811     960.044       0.283
  1040    293.25    -469.89391    -469.81811     960.044       0.028
  1041    286.07    -469.89196    -469.81801     960.044      -0.226
  1042    274.92    -469.88893    -469.81786     960.044      -0.444
  1043    264.81    -469.88621    -469.81775     960.044      -0.603
  1044    260.96    -469.88513    -469.81767     960.044      -0.686
  1045    266.47    -469.88655    -469.81766     960.044      -0.686
  1046    280.87    -469.89033    -469.81773     960.044      -0.601
  1047    300.22    -469.89544    -469.81783     960.044      -0.439
  1048    318.51    -469.90027    -469.81794     960.044      -0.218
  1049    330.04    -469.90333    -469.81801     960.044       0.036
  1050    331.83    -469.90387    -469.81809     960.044       0.293
  1051    325.02    -469.90205    -469.81802     960.044       0.515
  1052    314.40    -469.89923    -469.81795     960.044       0.672
  1053    305.85    -469.89697    -469.81790     960.044       0.740
  1054    303.05    -469.89626    -469.81792     960.044       0.711
  1055    305.55    -469.89698    -469.81799     960.044       0.591
  1056    309.21    -469.89799    -469.81806     960.044       0.396
  1057    308.81    -469.89792    -469.81809     960.044       0.155
  1058    301.20    -469.89592    -469.81806     960.044      -0.100
  1059    287.03    -469.89217    -469.81797     960.044      -0.336
  1060    270.44    -469.88772    -469.81781     960.044      -0.527
  1061    257.24    -469.88418    -469.81768     960.044      -0.653
  1062    252.39    -469.88286    -469.81762     960.044      -0.700
  1063    257.96    -469.88432    -469.81764     960.044      -0.660
  1064    272.22    -469.88810    -469.81773     960.044      -0.537
  1065    290.38    -469.89293    -469.81787     960.044      -0.346
  1066    306.48    -469.89722    -469.81799     960.044      -0.106
  1067    315.91    -469.89973    -469.81806     960.044       0.153
  1068    317.44    -469.90009    -469.81802     960.044       0.397
  1069    313.71    -469.89907    -469.81797     960.044       0.593
  1070    309.70    -469.89799    -469.81793     960.044       0.714
  1071    309.84    -469.89803    -469.81793     960.044       0.741
  1072    315.26    -469.89949    -469.81800     960.044       0.670
  1073    322.97    -469.90158    -469.81809     960.044       0.512
  1074    327.58    -469.90283    -469.81815     960.044       0.292
  1075    324.40    -469.90200    -469.81814     960.044       0.040
  1076    312.16    -469.89875    -469.81805     960.044      -0.210
  1077    293.64    -469.89379    -469.81788     960.044      -0.430
  1078    274.48    -469.88871    -469.81775     960.044      -0.593
  1079    260.79    -469.88509    -469.81767     960.044      -0.681
  1080    256.62    -469.88400    -469.81766     960.044      -0.685
  1081    262.38    -469.88555    -469.81772     960.044      -0.602
  1082    274.82    -469.88887    -469.81783     960.044      -0.442
  1083    288.41    -469.89249    -469.81793     960.044      -0.221
  1084    297.78    -469.89498    -469.81800     960.044       0.034
  1085    300.20    -469.89564    -469.81804     960.044       0.290
  1086    297.00    -469.89479    -469.81801     960.044       0.515
  1087    292.85    -469.89366    -469.81795     960.044       0.675
  1088    293.25    -469.89372    -469.81791     960.044       0.747
  1089    301.09    -469.89578    -469.81795     960.044       0.721
  1090    314.79    -469.89941    -469.81803     960.044       0.600
  1091    328.88    -469.90314    -469.81812     960.044       0.404
  1092    336.87    -469.90524    -469.81816     960.044       0.160
  1093    334.72    -469.90464    -469.81811     960.044      -0.098
  1094    322.69    -469.90150    -469.81808     960.044      -0.338
  1095    305.06    -469.89673    -469.81787     960.044      -0.532
  1096    288.01    -469.89218    -469.81772     960.044      -0.658
  1097    276.86    -469.88923    -469.81766     960.044      -0.706
  1098    274.13    -469.88853    -469.81766     960.044      -0.668
  1099    278.70    -469.88979    -469.81774     960.044      -0.548
  1100    286.53    -469.89192    -469.81785     960.044      -0.360
  1101    292.52    -469.89358    -469.81796     960.044      -0.122
  1102    292.95    -469.89374    -469.81801     960.044       0.137
  1103    287.53    -469.89232    -469.81799     960.044       0.385
  1104    279.76    -469.89025    -469.81793     960.044       0.587
  1105    275.36    -469.88907    -469.81788     960.044       0.713
  1106    279.06    -469.89003    -469.81789     960.044       0.746
  1107    291.70    -469.89337    -469.81796     960.044       0.682
  1108    309.47    -469.89806    -469.81806     960.044       0.531
  1109    325.65    -469.90232    -469.81814     960.044       0.314
  1110    333.96    -469.90447    -469.81814     960.044       0.061
  1111    331.73    -469.90393    -469.81817     960.044      -0.193
  1112    320.76    -469.90090    -469.81798     960.044      -0.421
  1113    306.19    -469.89696    -469.81780     960.044      -0.595
  1114    294.07    -469.89372    -469.81770     960.044      -0.697
  1115    288.87    -469.89236    -469.81768     960.044      -0.715
  1116    291.58    -469.89311    -469.81773     960.044      -0.644
  1117    299.39    -469.89524    -469.81785     960.044      -0.492
  1118    306.95    -469.89732    -469.81797     960.044      -0.273
  1119    308.91    -469.89789    -469.81804     960.044      -0.013
  1120    302.56    -469.89625    -469.81803     960.044       0.255
  1121    289.58    -469.89287    -469.81801     960.044       0.497
  1122    275.62    -469.88919    -469.81794     960.044       0.676
  1123    267.59    -469.88706    -469.81789     960.044       0.766
  1124    269.93    -469.88768    -469.81791     960.044       0.756
  1125    282.10    -469.89092    -469.81799     960.044       0.647
  1126    298.88    -469.89536    -469.81809     960.044       0.457
  1127    313.22    -469.89913    -469.81816     960.044       0.215
  1128    319.92    -469.90084    -469.81814     960.044      -0.047
  1129    317.84    -469.90015    -469.81799     960.044      -0.298
  1130    309.97    -469.89799    -469.81786     960.044      -0.509
  1131    301.77    -469.89575    -469.81774     960.044      -0.654
  1132    298.28    -469.89479    -469.81769     960.044      -0.719
  1133    301.84    -469.89573    -469.81770     960.044      -0.698
  1134    311.13    -469.89820    -469.81777     960.044      -0.591
  1135    321.67    -469.90104    -469.81789     960.044      -0.409
  1136    327.75    -469.90272    -469.81800     960.044      -0.172
  1137    325.09    -469.90211    -469.81807     960.044       0.093
  1138    313.14    -469.89904    -469.81809     960.044       0.349
  1139    295.77    -469.89440    -469.81795     960.044       0.562
  1140    279.68    -469.89018    -469.81788     960.044       0.703
  1141    271.12    -469.88795    -469.81786     960.044       0.751
  1142    272.75    -469.88842    -469.81792     960.044       0.701
  1143    282.31    -469.89099    -469.81801     960.044       0.562
  1144    294.07    -469.89411    -469.81809     960.044       0.353
  1145    301.95    -469.89617    -469.81811     960.044       0.103
  1146    302.69    -469.89634    -469.81809     960.044      -0.155
  1147    297.18    -469.89476    -469.81794     960.044      -0.389
  1148    289.63    -469.89268    -469.81781     960.044      -0.572
  1149    285.35    -469.89147    -469.81770     960.044      -0.685
  1150    288.21    -469.89218    -469.81768     960.044      -0.715
  1151    298.89    -469.89499    -469.81773     960.044      -0.659
  1152    314.36    -469.89910    -469.81784     960.044      -0.521
  1153    329.07    -469.90304    -469.81797     960.044      -0.316
  1154    337.08    -469.90521    -469.81808     960.044      -0.065
  1155    334.74    -469.90461    -469.81808     960.044       0.200
  1156    322.66    -469.90146    -469.81805     960.044       0.445
  1157    305.65    -469.89699    -469.81798     960.044       0.635
  1158    290.50    -469.89302    -469.81792     960.044       0.744
  1159    282.59    -469.89097    -469.81792     960.044       0.755
  1160    283.10    -469.89117    -469.81798     960.044       0.668
  1161    288.71    -469.89271    -469.81807     960.044       0.496
  1162    293.74    -469.89406    -469.81813     960.044       0.265
  1163    293.55    -469.89400    -469.81811     960.044       0.006
  1164    287.05    -469.89220    -469.81800     960.044      -0.248
  1165    277.08    -469.88947    -469.81784     960.044      -0.464
  1166    268.84    -469.88722    -469.81773     960.044      -0.621
  1167    267.30    -469.88676    -469.81766     960.044      -0.698
  1168    274.94    -469.88875    -469.81768     960.044      -0.691
  1169    290.52    -469.89285    -469.81775     960.044      -0.598
  1170    309.46    -469.89787    -469.81787     960.044      -0.428
  1171    325.59    -469.90214    -469.81797     960.044      -0.201
  1172    333.65    -469.90424    -469.81798     960.044       0.059
  1173    331.70    -469.90381    -469.81806     960.044       0.316
  1174    322.12    -469.90126    -469.81799     960.044       0.536
  1175    310.39    -469.89816    -469.81792     960.044       0.688
  1176    302.24    -469.89603    -469.81789     960.044       0.749
  1177    300.46    -469.89561    -469.81793     960.044       0.711
  1178    303.54    -469.89648    -469.81802     960.044       0.581
  1179    306.75    -469.89738    -469.81809     960.044       0.378
  1180    305.07    -469.89696    -469.81810     960.044       0.132
  1181    296.13    -469.89460    -469.81804     960.044      -0.125
  1182    281.51    -469.89068    -469.81791     960.044      -0.361
  1183    266.00    -469.88653    -469.81776     960.044      -0.548
  1184    255.41    -469.88368    -469.81765     960.044      -0.667
  1185    254.05    -469.88328    -469.81761     960.044      -0.705
  1186    263.06    -469.88565    -469.81765     960.044      -0.658
  1187    279.89    -469.89011    -469.81775     960.044      -0.528
  1188    299.18    -469.89523    -469.81789     960.044      -0.331
  1189    314.82    -469.89938    -469.81799     960.044      -0.086
  1190    322.61    -469.90144    -469.81804     960.044       0.175
  1191    322.06    -469.90128    -469.81803     960.044       0.419
  1192    316.48    -469.89979    -469.81798     960.044       0.611
  1193    311.15    -469.89837    -469.81794     960.044       0.724
  1194    310.16    -469.89812    -469.81794     960.044       0.742
  1195    314.07    -469.89919    -469.81800     960.044       0.664
  1196    319.59    -469.90070    -469.81808     960.044       0.501
  1197    321.58    -469.90126    -469.81813     960.044       0.277
  1198    316.13    -469.89983    -469.81811     960.044       0.024
  1199    302.70    -469.89628    -469.81803     960.044      -0.226
  1200    284.56    -469.89140    -469.81784     960.044      -0.443
  1201    267.31    -469.88684    -469.81774     960.044      -0.601
  1202    256.49    -469.88396    -469.81766     960.044      -0.685
  1203    255.30    -469.88366    -469.81766     960.044      -0.683
  1204    263.38    -469.88581    -469.81773     960.044      -0.595
  1205    277.01    -469.88944    -469.81783     960.044      -0.429
  1206    290.62    -469.89305    -469.81793     960.044      -0.202
  1207    299.34    -469.89536    -469.81798     960.044       0.056
  1208    301.32    -469.89591    -469.81801     960.044       0.313
  1209    298.60    -469.89517    -469.81798     960.044       0.533
  1210    295.93    -469.89443    -469.81793     960.044       0.686
  1211    298.04    -469.89496    -469.81791     960.044       0.749
  1212    306.70    -469.89724    -469.81796     960.044       0.715
  1213    319.51    -469.90064    -469.81804     960.044       0.589
  1214    331.01    -469.90370    -469.81813     960.044       0.390
  1215    335.50    -469.90488    -469.81815     960.044       0.146
  1216    329.95    -469.90339    -469.81810     960.044      -0.110
  1217    315.46    -469.89949    -469.81794     960.044      -0.348
  1218    296.67    -469.89449    -469.81780     960.044      -0.539
  1219    279.63    -469.88997    -469.81768     960.044      -0.663
  1220    269.33    -469.88726    -469.81763     960.044      -0.706
  1221    267.81    -469.88688    -469.81765     960.044      -0.663
  1222    273.60    -469.88846    -469.81773     960.044      -0.540
  1223    282.54    -469.89088    -469.81784     960.044      -0.347
  1224    289.71    -469.89283    -469.81794     960.044      -0.106
  1225    291.75    -469.89340    -469.81798     960.044       0.155
  1226    288.65    -469.89259    -469.81798     960.044       0.399
  1227    283.81    -469.89130    -469.81793     960.044       0.595
  1228    282.20    -469.89084    -469.81789     960.044       0.714
  1229    287.54    -469.89223    -469.81790     960.044       0.740
  1230    299.94    -469.89550    -469.81797     960.044       0.669
  1231    315.52    -469.89962    -469.81805     960.044       0.512
  1232    328.31    -469.90298    -469.81811     960.044       0.293
  1233    333.26    -469.90426    -469.81811     960.044       0.041
  1234    328.67    -469.90325    -469.81828     960.044      -0.210
  1235    316.69    -469.89977    -469.81790     960.044      -0.431
  1236    302.18    -469.89592    -469.81780     960.044      -0.599
  1237    290.57    -469.89281    -469.81769     960.044      -0.693
  1238    285.55    -469.89150    -469.81768     960.044      -0.701
  1239    287.52    -469.89206    -469.81773     960.044      -0.622
  1240    293.67    -469.89374    -469.81782     960.044      -0.464
  1241    299.24    -469.89527    -469.81791     960.044      -0.245
  1242    299.83    -469.89546    -469.81795     960.044       0.012
  1243    293.66    -469.89391    -469.81799     960.044       0.274
  1244    282.83    -469.89109    -469.81797     960.044       0.508
  1245    272.57    -469.88837    -469.81791     960.044       0.678
  1246    268.66    -469.88733    -469.81788     960.044       0.759
  1247    274.26    -469.88881    -469.81791     960.044       0.740
  1248    288.04    -469.89246    -469.81800     960.044       0.626
  1249    304.83    -469.89689    -469.81809     960.044       0.434
  1250    318.26    -469.90042    -469.81814     960.044       0.192
  1251    323.89    -469.90183    -469.81811     960.044      -0.067
  1252    321.05    -469.90094    -469.81795     960.044      -0.311
  1253    312.73    -469.89867    -469.81782     960.044      -0.514
  1254    303.89    -469.89629    -469.81773     960.044      -0.652
  1255    299.12    -469.89500    -469.81768     960.044      -0.710
  1256    300.61    -469.89540    -469.81769     960.044      -0.683
  1257    307.18    -469.89717    -469.81777     960.044      -0.570
  1258    314.87    -469.89927    -469.81787     960.044      -0.384
  1259    318.75    -469.90037    -469.81797     960.044      -0.145
  1260    315.28    -469.89953    -469.81803     960.044       0.117
  1261    304.31    -469.89666    -469.81799     960.044       0.368
  1262    289.46    -469.89275    -469.81792     960.044       0.575
  1263    276.53    -469.88934    -469.81786     960.044       0.708
  1264    270.75    -469.88784    -469.81785     960.044       0.748
  1265    274.06    -469.88874    -469.81790     960.044       0.691
  1266    284.19    -469.89145    -469.81798     960.044       0.544
  1267    295.99    -469.89457    -469.81805     960.044       0.332
  1268    304.20    -469.89671    -469.81807     960.044       0.081
  1269    305.99    -469.89713    -469.81803     960.044      -0.174
  1270    302.17    -469.89603    -469.81791     960.044      -0.402
  1271    296.42    -469.89441    -469.81778     960.044      -0.577
  1272    293.34    -469.89353    -469.81769     960.044      -0.681
  1273    296.14    -469.89422    -469.81767     960.044      -0.703
  1274    305.14    -469.89659    -469.81771     960.044      -0.639
  1275    317.52    -469.89989    -469.81781     960.044      -0.496
  1276    328.43    -469.90281    -469.81791     960.044      -0.290
  1277    332.88    -469.90402    -469.81797     960.044      -0.042
  1278    328.14    -469.90279    -469.81796     960.044       0.216
  1279    315.27    -469.89951    -469.81801     960.044       0.449
  1280    298.81    -469.89520    -469.81795     960.044       0.629
  1281    284.71    -469.89150    -469.81790     960.044       0.729
  1282    277.63    -469.88966    -469.81789     960.044       0.735
  1283    278.65    -469.88998    -469.81795     960.044       0.646
  1284    284.90    -469.89168    -469.81803     960.044       0.475
  1285    291.39    -469.89341    -469.81808     960.044       0.247
  1286    293.84    -469.89403    -469.81807     960.044      -0.005
  1287    290.84    -469.89315    -469.81796     960.044      -0.250
  1288    284.37    -469.89134    -469.81783     960.044      -0.460
  1289    278.65    -469.88977    -469.81773     960.044      -0.610
  1290    278.02    -469.88955    -469.81768     960.044      -0.683
  1291    284.82    -469.89132    -469.81769     960.044      -0.672
  1292    298.25    -469.89485    -469.81775     960.044      -0.577
  1293    314.55    -469.89916    -469.81785     960.044      -0.409
  1294    328.42    -469.90285    -469.81795     960.044      -0.185
  1295    335.29    -469.90469    -469.81802     960.044       0.064
  1296    333.28    -469.90419    -469.81804     960.044       0.310
  1297    324.07    -469.90175    -469.81797     960.044       0.520
  1298    312.13    -469.89860    -469.81791     960.044       0.663
  1299    302.40    -469.89606    -469.81789     960.044       0.720
  1300    297.83    -469.89490    -469.81791     960.044       0.683
  1301    297.91    -469.89499    -469.81798     960.044       0.557
  1302    299.28    -469.89541    -469.81804     960.044       0.363
  1303    297.90    -469.89506    -469.81805     960.044       0.127
  1304    291.47    -469.89334    -469.81799     960.044      -0.118
  1305    280.81    -469.89047    -469.81788     960.044      -0.345
  1306    269.51    -469.88743    -469.81776     960.044      -0.526
  1307    262.30    -469.88547    -469.81766     960.044      -0.643
  1308    262.95    -469.88559    -469.81762     960.044      -0.680
  1309    272.53    -469.88810    -469.81765     960.044      -0.634
  1310    288.81    -469.89240    -469.81774     960.044      -0.509
  1311    307.14    -469.89725    -469.81785     960.044      -0.320
  1312    322.08    -469.90120    -469.81794     960.044      -0.086
  1313    329.60    -469.90320    -469.81800     960.044       0.162
  1314    328.81    -469.90302    -469.81802     960.044       0.394
  1315    322.19    -469.90126    -469.81797     960.044       0.580
  1316    314.39    -469.89919    -469.81792     960.044       0.691
  1317    309.67    -469.89796    -469.81790     960.044       0.712
  1318    309.59    -469.89797    -469.81794     960.044       0.640
  1319    312.24    -469.89873    -469.81801     960.044       0.487
  1320    313.41    -469.89908    -469.81806     960.044       0.273
  1321    309.19    -469.89799    -469.81806     960.044       0.029
  1322    298.31    -469.89510    -469.81798     960.044      -0.213
  1323    282.96    -469.89097    -469.81782     960.044      -0.421
  1324    267.84    -469.88697    -469.81773     960.044      -0.574
  1325    258.03    -469.88435    -469.81765     960.044      -0.655
  1326    256.86    -469.88404    -469.81764     960.044      -0.653
  1327    264.58    -469.88609    -469.81769     960.044      -0.570
  1328    278.26    -469.88971    -469.81778     960.044      -0.412
  1329    293.05    -469.89362    -469.81787     960.044      -0.197
  1330    304.22    -469.89658    -469.81793     960.044       0.048
  1331    309.31    -469.89795    -469.81799     960.044       0.293
  1332    309.12    -469.89789    -469.81798     960.044       0.505
  1333    307.18    -469.89734    -469.81793     960.044       0.655
  1334    307.68    -469.89744    -469.81790     960.044       0.720
  1335    312.90    -469.89882    -469.81794     960.044       0.692
  1336    321.65    -469.90116    -469.81801     960.044       0.574
  1337    329.65    -469.90330    -469.81809     960.044       0.384
  1338    331.84    -469.90389    -469.81811     960.044       0.149
  1339    325.15    -469.90211    -469.81805     960.044      -0.100
  1340    310.23    -469.89812    -469.81792     960.044      -0.331
  1341    291.15    -469.89306    -469.81780     960.044      -0.517
  1342    273.69    -469.88843    -469.81768     960.044      -0.638
  1343    262.92    -469.88558    -469.81761     960.044      -0.681
  1344    261.28    -469.88516    -469.81762     960.044      -0.640
  1345    267.81    -469.88692    -469.81769     960.044      -0.522
  1346    278.65    -469.88983    -469.81779     960.044      -0.335
  1347    288.73    -469.89253    -469.81789     960.044      -0.100
  1348    294.15    -469.89400    -469.81796     960.044       0.153
  1349    293.93    -469.89395    -469.81797     960.044       0.392
  1350    290.55    -469.89303    -469.81792     960.044       0.585
  1351    288.63    -469.89248    -469.81787     960.044       0.703
  1352    292.34    -469.89343    -469.81786     960.044       0.730
  1353    302.78    -469.89618    -469.81791     960.044       0.662
  1354    316.95    -469.89993    -469.81800     960.044       0.508
  1355    329.12    -469.90315    -469.81807     960.044       0.290
  1356    333.87    -469.90439    -469.81808     960.044       0.041
  1357    328.84    -469.90320    -469.81819     960.044      -0.208
  1358    315.76    -469.89947    -469.81784     960.044      -0.427
  1359    299.51    -469.89519    -469.81777     960.044      -0.591
  1360    285.83    -469.89154    -469.81765     960.044      -0.681
  1361    278.90    -469.88973    -469.81763     960.044      -0.686
  1362    279.66    -469.88997    -469.81767     960.044      -0.606
  1363    285.64    -469.89160    -469.81776     960.044      -0.448
  1364    292.17    -469.89339    -469.81786     960.044      -0.228
  1365    294.66    -469.89409    -469.81792     960.044       0.026
  1366    290.91    -469.89318    -469.81798     960.044       0.284
  1367    282.47    -469.89097    -469.81795     960.044       0.511
  1368    274.22    -469.88879    -469.81790     960.044       0.675
  1369    271.84    -469.88813    -469.81785     960.044       0.751
  1370    278.68    -469.88993    -469.81789     960.044       0.730
  1371    293.59    -469.89387    -469.81797     960.044       0.613
  1372    311.28    -469.89855    -469.81808     960.044       0.418
  1373    324.95    -469.90214    -469.81813     960.044       0.176
  1374    329.78    -469.90334    -469.81809     960.044      -0.082
  1375    325.01    -469.90195    -469.81793     960.044      -0.324
  1376    313.93    -469.89901    -469.81785     960.044      -0.521
  1377    302.12    -469.89583    -469.81773     960.044      -0.652
  1378    294.71    -469.89385    -469.81766     960.044      -0.702
  1379    294.26    -469.89373    -469.81766     960.044      -0.667
  1380    299.76    -469.89522    -469.81773     960.044      -0.551
  1381    307.25    -469.89727    -469.81784     960.044      -0.364
  1382    311.59    -469.89849    -469.81794     960.044      -0.128
  1383    308.87    -469.89785    -469.81801     960.044       0.130
  1384    298.48    -469.89514    -469.81798     960.044       0.377
  1385    283.85    -469.89128    -469.81790     960.044       0.579
  1386    271.10    -469.88791    -469.81783     960.044       0.707
  1387    266.07    -469.88659    -469.81781     960.044       0.744
  1388    271.22    -469.88797    -469.81786     960.044       0.683
  1389    284.28    -469.89144    -469.81796     960.044       0.534
  1390    299.44    -469.89545    -469.81804     960.044       0.319
  1391    310.50    -469.89833    -469.81806     960.044       0.068
  1392    313.90    -469.89920    -469.81805     960.044      -0.187
  1393    310.22    -469.89810    -469.81790     960.044      -0.413
  1394    303.42    -469.89620    -469.81776     960.044      -0.585
  1395    298.66    -469.89486    -469.81766     960.044      -0.685
  1396    299.71    -469.89510    -469.81762     960.044      -0.701
  1397    307.25    -469.89709    -469.81766     960.044      -0.631
  1398    318.49    -469.90010    -469.81776     960.044      -0.482
  1399    328.28    -469.90274    -469.81788     960.044      -0.269
  1400    331.25    -469.90358    -469.81795     960.044      -0.015
  1401    324.56    -469.90186    -469.81796     960.044       0.247
  1402    309.57    -469.89800    -469.81798     960.044       0.483
  1403    291.58    -469.89327    -469.81789     960.044       0.659
  1404    277.54    -469.88958    -469.81783     960.044       0.750
  1405    272.56    -469.88830    -469.81784     960.044       0.742
  1406    277.16    -469.88957    -469.81792     960.044       0.637
  1407    287.21    -469.89227    -469.81803     960.044       0.451
  1408    296.38    -469.89471    -469.81809     960.044       0.213
  1409    299.69    -469.89554    -469.81806     960.044      -0.046
  1410    296.00    -469.89444    -469.81792     960.044      -0.291
  1411    288.25    -469.89232    -469.81780     960.044      -0.495
  1412    281.67    -469.89051    -469.81770     960.044      -0.635
  1413    281.15    -469.89032    -469.81764     960.044      -0.695
  1414    288.96    -469.89235    -469.81765     960.044      -0.669
  1415    303.72    -469.89624    -469.81772     960.044      -0.562
  1416    320.84    -469.90078    -469.81783     960.044      -0.384
  1417    334.32    -469.90437    -469.81794     960.044      -0.154
  1418    339.18    -469.90575    -469.81807     960.044       0.099
  1419    333.70    -469.90428    -469.81802     960.044       0.347
  1420    320.41    -469.90076    -469.81793     960.044       0.554
  1421    305.07    -469.89673    -469.81786     960.044       0.690
  1422    293.77    -469.89377    -469.81783     960.044       0.734
  1423    289.74    -469.89277    -469.81787     960.044       0.681
  1424    291.81    -469.89338    -469.81795     960.044       0.542
  1425    295.51    -469.89441    -469.81801     960.044       0.335
  1426    295.93    -469.89452    -469.81802     960.044       0.092
  1427    290.59    -469.89306    -469.81794     960.044      -0.156
  1428    280.70    -469.89041    -469.81784     960.044      -0.381
  1429    270.53    -469.88764    -469.81771     960.044      -0.556
  1430    265.26    -469.88618    -469.81760     960.044      -0.663
  1431    268.66    -469.88702    -469.81757     960.044      -0.689
  1432    281.29    -469.89033    -469.81761     960.044      -0.631
  1433    300.09    -469.89530    -469.81772     960.044      -0.492
  1434    319.34    -469.90041    -469.81785     960.044      -0.289
  1435    332.87    -469.90402    -469.81797     960.044      -0.043
  1436    336.75    -469.90508    -469.81803     960.044       0.213
  1437    331.19    -469.90358    -469.81797     960.044       0.445
  1438    320.36    -469.90070    -469.81789     960.044       0.623
  1439    310.29    -469.89805    -469.81784     960.044       0.718
  1440    305.64    -469.89685    -469.81784     960.044       0.718
  1441    307.10    -469.89730    -469.81791     960.044       0.625
  1442    311.20    -469.89845    -469.81800     960.044       0.454
  1443    312.50    -469.89884    -469.81806     960.044       0.229
  1444    306.94    -469.89738    -469.81804     960.044      -0.020
  1445    294.07    -469.89393    -469.81791     960.044      -0.260
  1446    277.36    -469.88947    -469.81776     960.044      -0.462
  1447    262.52    -469.88552    -469.81765     960.044      -0.604
  1448    254.96    -469.88350    -469.81759     960.044      -0.669
  1449    257.51    -469.88417    -469.81760     960.044      -0.652
  1450    269.35    -469.88730    -469.81767     960.044      -0.552
  1451    286.36    -469.89180    -469.81777     960.044      -0.382
  1452    302.77    -469.89614    -469.81787     960.044      -0.159
  1453    313.56    -469.89899    -469.81794     960.044       0.091
  1454    316.70    -469.89984    -469.81797     960.044       0.334
  1455    314.10    -469.89914    -469.81794     960.044       0.540
  1456    310.39    -469.89812    -469.81788     960.044       0.677
  1457    310.20    -469.89806    -469.81787     960.044       0.726
  1458    315.36    -469.89944    -469.81792     960.044       0.681
  1459    323.59    -469.90166    -469.81801     960.044       0.548
  1460    329.73    -469.90331    -469.81807     960.044       0.346
  1461    328.71    -469.90304    -469.81807     960.044       0.105
  1462    318.35    -469.90031    -469.81801     960.044      -0.144
  1463    300.61    -469.89562    -469.81790     960.044      -0.370
  1464    280.66    -469.89031    -469.81775     960.044      -0.546
  1465    264.66    -469.88604    -469.81763     960.044      -0.654
  1466    257.25    -469.88408    -469.81758     960.044      -0.682
  1467    259.82    -469.88477    -469.81760     960.044      -0.627
  1468    270.13    -469.88752    -469.81769     960.044      -0.495
  1469    283.29    -469.89104    -469.81781     960.044      -0.298
  1470    293.85    -469.89387    -469.81791     960.044      -0.059
  1471    298.23    -469.89506    -469.81796     960.044       0.193
  1472    296.52    -469.89458    -469.81793     960.044       0.426
  1473    292.43    -469.89346    -469.81786     960.044       0.608
  1474    291.36    -469.89313    -469.81782     960.044       0.711
  1475    297.16    -469.89465    -469.81783     960.044       0.721
  1476    309.64    -469.89795    -469.81791     960.044       0.636
  1477    324.30    -469.90184    -469.81801     960.044       0.471
  1478    334.68    -469.90459    -469.81807     960.044       0.248
  1479    335.74    -469.90485    -469.81806     960.044      -0.000
  1480    326.30    -469.90231    -469.81796     960.044      -0.244
  1481    309.51    -469.89781    -469.81780     960.044      -0.454
  1482    291.25    -469.89297    -469.81767     960.044      -0.606
  1483    277.53    -469.88934    -469.81760     960.044      -0.681
  1484    272.01    -469.88791    -469.81759     960.044      -0.672
  1485    274.72    -469.88868    -469.81766     960.044      -0.579
  1486    282.20    -469.89072    -469.81777     960.044      -0.410
  1487    289.22    -469.89264    -469.81787     960.044      -0.183
  1488    291.35    -469.89324    -469.81793     960.044       0.072
  1489    287.20    -469.89220    -469.81796     960.044       0.326
  1490    279.38    -469.89014    -469.81791     960.044       0.545
  1491    273.42    -469.88853    -469.81785     960.044       0.694
  1492    274.69    -469.88885    -469.81783     960.044       0.753
  1493    285.15    -469.89161    -469.81790     960.044       0.714
  1494    301.97    -469.89607    -469.81800     960.044       0.582
  1495    318.89    -469.90053    -469.81810     960.044       0.379
  1496    329.40    -469.90327    -469.81812     960.044       0.134
  1497    329.93    -469.90332    -469.81803     960.044      -0.121
  1498    321.31    -469.90113    -469.81807     960.044      -0.356
  1499    308.03    -469.89746    -469.81783     960.044      -0.543
  1500    295.96    -469.89421    -469.81771     960.044      -0.661
  1501    289.76    -469.89255    -469.81764     960.044      -0.699
  1502    290.93    -469.89287    -469.81766     960.044      -0.650
  1503    297.32    -469.89460    -469.81774     960.044      -0.519
  1504    304.14    -469.89647    -469.81785     960.044      -0.321
  1505    306.23    -469.89709    -469.81793     960.044      -0.079
  1506    300.57    -469.89567    -469.81797     960.044       0.179
  1507    288.08    -469.89239    -469.81792     960.044       0.420
  1508    273.71    -469.88859    -469.81784     960.044       0.608
  1509    264.07    -469.88605    -469.81778     960.044       0.719
  1510    264.13    -469.88607    -469.81779     960.044       0.737
  1511    274.48    -469.88883    -469.81787     960.044       0.660
  1512    291.02    -469.89320    -469.81797     960.044       0.499
  1513    307.07    -469.89742    -469.81804     960.044       0.277
  1514    316.76    -469.89992    -469.81804     960.044       0.025
  1515    317.73    -469.90013    -469.81799     960.044      -0.225
  1516    311.80    -469.89844    -469.81783     960.044      -0.443
  1517    303.69    -469.89621    -469.81770     960.044      -0.603
  1518    298.53    -469.89479    -469.81761     960.044      -0.689
  1519    299.52    -469.89503    -469.81761     960.044      -0.691
  1520    306.46    -469.89690    -469.81767     960.044      -0.608
  1521    315.88    -469.89945    -469.81779     960.044      -0.447
  1522    322.49    -469.90127    -469.81791     960.044      -0.226
  1523    321.63    -469.90112    -469.81798     960.044       0.031
  1524    311.79    -469.89863    -469.81802     960.044       0.290
  1525    295.72    -469.89435    -469.81791     960.044       0.518
  1526    279.44    -469.89005    -469.81781     960.044       0.680
  1527    269.39    -469.88744    -469.81780     960.044       0.754
  1528    269.00    -469.88737    -469.81784     960.044       0.729
  1529    276.96    -469.88953    -469.81793     960.044       0.610
  1530    288.22    -469.89253    -469.81802     960.044       0.416
  1531    296.86    -469.89480    -469.81805     960.044       0.177
  1532    299.14    -469.89533    -469.81800     960.044      -0.079
  1533    295.16    -469.89418    -469.81788     960.044      -0.319
  1534    288.49    -469.89233    -469.81775     960.044      -0.517
  1535    284.23    -469.89114    -469.81767     960.044      -0.649
  1536    286.56    -469.89170    -469.81762     960.044      -0.702
  1537    296.74    -469.89435    -469.81764     960.044      -0.667
  1538    312.38    -469.89848    -469.81772     960.044      -0.548
  1539    328.28    -469.90269    -469.81783     960.044      -0.358
  1540    338.50    -469.90541    -469.81791     960.044      -0.118
  1541    338.93    -469.90557    -469.81795     960.044       0.142
  1542    329.33    -469.90309    -469.81796     960.044       0.388
  1543    313.64    -469.89896    -469.81788     960.044       0.586
  1544    298.10    -469.89488    -469.81781     960.044       0.710
  1545    288.23    -469.89231    -469.81780     960.044       0.740
  1546    286.13    -469.89182    -469.81785     960.044       0.674
  1547    289.62    -469.89280    -469.81793     960.044       0.521
  1548    293.88    -469.89395    -469.81798     960.044       0.303
  1549    294.39    -469.89407    -469.81797     960.044       0.053
  1550    289.42    -469.89274    -469.81792     960.044      -0.200
  1551    280.87    -469.89040    -469.81779     960.044      -0.422
  1552    273.12    -469.88827    -469.81767     960.044      -0.590
  1553    270.93    -469.88761    -469.81758     960.044      -0.684
  1554    277.15    -469.88921    -469.81756     960.044      -0.694
  1555    291.32    -469.89294    -469.81763     960.044      -0.619
  1556    309.60    -469.89778    -469.81775     960.044      -0.465
  1557    326.25    -469.90222    -469.81788     960.044      -0.250
  1558    335.95    -469.90485    -469.81800     960.044       0.003
  1559    336.12    -469.90496    -469.81807     960.044       0.261
  1560    328.18    -469.90276    -469.81792     960.044       0.489
  1561    316.94    -469.89977    -469.81784     960.044       0.656
  1562    308.00    -469.89744    -469.81782     960.044       0.736
  1563    304.70    -469.89662    -469.81786     960.044       0.719
  1564    306.41    -469.89714    -469.81794     960.044       0.609
  1565    309.15    -469.89794    -469.81802     960.044       0.422
  1566    308.12    -469.89770    -469.81804     960.044       0.186
  1567    300.52    -469.89568    -469.81799     960.044      -0.067
  1568    287.15    -469.89208    -469.81785     960.044      -0.306
  1569    272.14    -469.88806    -469.81771     960.044      -0.502
  1570    260.98    -469.88509    -469.81762     960.044      -0.632
  1571    258.15    -469.88431    -469.81758     960.044      -0.683
  1572    265.24    -469.88618    -469.81761     960.044      -0.648
  1573    280.28    -469.89015    -469.81769     960.044      -0.530
  1574    298.48    -469.89496    -469.81780     960.044      -0.343
  1575    314.07    -469.89907    -469.81788     960.044      -0.105
  1576    322.83    -469.90139    -469.81793     960.044       0.151
  1577    323.92    -469.90169    -469.81796     960.044       0.393
  1578    320.04    -469.90065    -469.81791     960.044       0.587
  1579    315.86    -469.89952    -469.81787     960.044       0.704
  1580    315.20    -469.89935    -469.81787     960.044       0.728
  1581    318.79    -469.90033    -469.81792     960.044       0.658
  1582    323.88    -469.90171    -469.81799     960.044       0.504
  1583    325.88    -469.90226    -469.81802     960.044       0.290
  1584    321.04    -469.90099    -469.81800     960.044       0.044
  1585    308.52    -469.89774    -469.81798     960.044      -0.202
  1586    290.95    -469.89306    -469.81784     960.044      -0.419
  1587    273.38    -469.88838    -469.81771     960.044      -0.583
  1588    261.11    -469.88510    -469.81760     960.044      -0.674
  1589    257.63    -469.88416    -469.81756     960.044      -0.684
  1590    263.24    -469.88566    -469.81761     960.044      -0.610
  1591    275.03    -469.88880    -469.81771     960.044      -0.459
  1592    288.08    -469.89229    -469.81782     960.044      -0.248
  1593    297.69    -469.89487    -469.81791     960.044      -0.001
  1594    301.44    -469.89587    -469.81794     960.044       0.253
  1595    300.38    -469.89555    -469.81790     960.044       0.478
  1596    298.41    -469.89498    -469.81784     960.044       0.643
  1597    299.98    -469.89537    -469.81783     960.044       0.725
  1598    307.36    -469.89732    -469.81787     960.044       0.712
  1599    319.04    -469.90042    -469.81795     960.044       0.608
  1600    330.35    -469.90343    -469.81803     960.044       0.427
  1601    335.79    -469.90488    -469.81808     960.044       0.196
  1602    331.89    -469.90384    -469.81804     960.044      -0.055
  1603    318.98    -469.90036    -469.81790     960.044      -0.294
  1604    300.90    -469.89553    -469.81775     960.044      -0.493
  1605    283.30    -469.89088    -469.81764     960.044      -0.632
  1606    271.40    -469.88775    -469.81759     960.044      -0.691
  1607    267.98    -469.88688    -469.81761     960.044      -0.664
  1608    272.29    -469.88808    -469.81769     960.044      -0.552
  1609    280.57    -469.89032    -469.81779     960.044      -0.366
  1610    287.89    -469.89230    -469.81788     960.044      -0.128
  1611    290.51    -469.89302    -469.81792     960.044       0.132
  1612    287.77    -469.89232    -469.81793     960.044       0.382
  1613    282.50    -469.89092    -469.81789     960.044       0.586
  1614    279.58    -469.89013    -469.81786     960.044       0.715
  1615    283.08    -469.89104    -469.81786     960.044       0.750
  1616    293.92    -469.89389    -469.81791     960.044       0.690
  1617    309.08    -469.89789    -469.81799     960.044       0.542
  1618    322.99    -469.90155    -469.81806     960.044       0.328
  1619    330.25    -469.90343    -469.81806     960.044       0.077
  1620    328.29    -469.90287    -469.81801     960.044      -0.177
  1621    318.43    -469.90025    -469.81793     960.044      -0.404
  1622    305.06    -469.89666    -469.81780     960.044      -0.578
  1623    293.42    -469.89353    -469.81768     960.044      -0.679
  1624    287.37    -469.89192    -469.81763     960.044      -0.698
  1625    287.89    -469.89207    -469.81765     960.044      -0.631
  1626    292.72    -469.89340    -469.81773     960.044      -0.484
  1627    297.54    -469.89474    -469.81783     960.044      -0.274
  1628    298.02    -469.89495    -469.81791     960.044      -0.024
  1629    292.10    -469.89344    -469.81793     960.044       0.234
  1630    281.31    -469.89061    -469.81789     960.044       0.468
  1631    270.41    -469.88773    -469.81782     960.044       0.642
  1632    265.12    -469.88632    -469.81779     960.044       0.735
  1633    269.09    -469.88738    -469.81781     960.044       0.733
  1634    281.84    -469.89075    -469.81790     960.044       0.635
  1635    298.84    -469.89524    -469.81799     960.044       0.458
  1636    313.76    -469.89915    -469.81804     960.044       0.227
  1637    321.57    -469.90116    -469.81803     960.044      -0.026
  1638    320.69    -469.90086    -469.81796     960.044      -0.271
  1639    313.29    -469.89881    -469.81782     960.044      -0.480
  1640    304.03    -469.89629    -469.81769     960.044      -0.627
  1641    297.76    -469.89460    -469.81763     960.044      -0.698
  1642    297.32    -469.89450    -469.81763     960.044      -0.683
  1643    302.42    -469.89589    -469.81771     960.044      -0.584
  1644    309.76    -469.89790    -469.81783     960.044      -0.409
  1645    314.49    -469.89923    -469.81793     960.044      -0.177
  1646    312.56    -469.89878    -469.81798     960.044       0.084
  1647    302.84    -469.89623    -469.81794     960.044       0.342
  1648    288.07    -469.89238    -469.81791     960.044       0.560
  1649    273.80    -469.88863    -469.81786     960.044       0.708
  1650    265.79    -469.88655    -469.81784     960.044       0.764
  1651    267.05    -469.88691    -469.81787     960.044       0.722
  1652    276.31    -469.88938    -469.81795     960.044       0.588
  1653    288.75    -469.89267    -469.81803     960.044       0.382
  1654    298.64    -469.89526    -469.81806     960.044       0.132
  1655    302.22    -469.89613    -469.81800     960.044      -0.128
  1656    299.48    -469.89530    -469.81788     960.044      -0.366
  1657    293.80    -469.89373    -469.81778     960.044      -0.555
  1658    290.06    -469.89266    -469.81767     960.044      -0.672
  1659    292.16    -469.89315    -469.81763     960.044      -0.707
  1660    301.15    -469.89550    -469.81765     960.044      -0.654
  1661    314.61    -469.89906    -469.81773     960.044      -0.520
  1662    327.48    -469.90249    -469.81784     960.044      -0.316
  1663    334.23    -469.90433    -469.81793     960.044      -0.068
  1664    331.34    -469.90364    -469.81798     960.044       0.194
  1665    319.17    -469.90047    -469.81796     960.044       0.434
  1666    302.01    -469.89595    -469.81788     960.044       0.621
  1667    286.23    -469.89181    -469.81781     960.044       0.729
  1668    277.28    -469.88949    -469.81781     960.044       0.739
  1669    276.98    -469.88946    -469.81786     960.044       0.653
  1670    282.85    -469.89105    -469.81793     960.044       0.486
  1671    289.74    -469.89290    -469.81800     960.044       0.260
  1672    292.81    -469.89370    -469.81800     960.044       0.006
  1673    290.09    -469.89293    -469.81794     960.044      -0.241
  1674    283.30    -469.89104    -469.81781     960.044      -0.454
  1675    276.79    -469.88924    -469.81768     960.044      -0.608
  1676    275.24    -469.88876    -469.81761     960.044      -0.687
  1677    281.42    -469.89035    -469.81760     960.044      -0.682
  1678    294.90    -469.89391    -469.81767     960.044      -0.595
  1679    312.04    -469.89846    -469.81780     960.044      -0.432
  1680    327.37    -469.90256    -469.81794     960.044      -0.212
  1681    335.78    -469.90484    -469.81804     960.044       0.039
  1682    334.77    -469.90458    -469.81804     960.044       0.291
  1683    325.59    -469.90211    -469.81794     960.044       0.511
  1684    312.76    -469.89875    -469.81789     960.044       0.666
  1685    301.85    -469.89590    -469.81786     960.044       0.736
  1686    296.59    -469.89456    -469.81789     960.044       0.710
  1687    297.00    -469.89474    -469.81796     960.044       0.593
  1688    299.62    -469.89548    -469.81803     960.044       0.401
  1689    299.72    -469.89553    -469.81805     960.044       0.163
  1690    294.21    -469.89405    -469.81799     960.044      -0.088
  1691    283.45    -469.89114    -469.81787     960.044      -0.321
  1692    271.04    -469.88781    -469.81774     960.044      -0.510
  1693    262.11    -469.88541    -469.81765     960.044      -0.632
  1694    261.02    -469.88508    -469.81760     960.044      -0.676
  1695    269.41    -469.88727    -469.81763     960.044      -0.634
  1696    285.41    -469.89149    -469.81770     960.044      -0.513
  1697    304.31    -469.89648    -469.81781     960.044      -0.325
  1698    320.31    -469.90070    -469.81790     960.044      -0.093
  1699    328.90    -469.90298    -469.81796     960.044       0.157
  1700    328.82    -469.90300    -469.81799     960.044       0.391
  1701    322.59    -469.90133    -469.81793     960.044       0.579
  1702    315.13    -469.89934    -469.81787     960.044       0.693
  1703    311.11    -469.89828    -469.81786     960.044       0.716
  1704    312.27    -469.89862    -469.81790     960.044       0.645
  1705    316.58    -469.89981    -469.81797     960.044       0.492
  1706    319.35    -469.90058    -469.81803     960.044       0.278
  1707    316.15    -469.89975    -469.81802     960.044       0.034
  1708    305.37    -469.89695    -469.81801     960.044      -0.210
  1709    289.20    -469.89261    -469.81785     960.044      -0.423
  1710    272.63    -469.88818    -469.81770     960.044      -0.581
  1711    261.17    -469.88511    -469.81760     960.044      -0.667
  1712    258.61    -469.88442    -469.81757     960.044      -0.672
  1713    265.57    -469.88626    -469.81761     960.044      -0.595
  1714    279.33    -469.88992    -469.81771     960.044      -0.444
  1715    294.97    -469.89409    -469.81784     960.044      -0.234
  1716    307.40    -469.89741    -469.81794     960.044       0.010
  1717    313.54    -469.89906    -469.81801     960.044       0.258
  1718    313.66    -469.89901    -469.81793     960.044       0.479
  1719    311.17    -469.89832    -469.81788     960.044       0.641
  1720    310.63    -469.89816    -469.81786     960.044       0.719
  1721    314.95    -469.89931    -469.81789     960.044       0.701
  1722    323.38    -469.90156    -469.81797     960.044       0.592
  1723    331.75    -469.90381    -469.81805     960.044       0.408
  1724    334.70    -469.90461    -469.81809     960.044       0.175
  1725    328.71    -469.90302    -469.81805     960.044      -0.074
  1726    314.07    -469.89907    -469.81788     960.044      -0.307
  1727    294.81    -469.89397    -469.81776     960.044      -0.497
  1728    276.82    -469.88921    -469.81765     960.044      -0.624
  1729    265.44    -469.88622    -469.81760     960.044      -0.673
  1730    263.44    -469.88572    -469.81762     960.044      -0.639
  1731    269.97    -469.88748    -469.81769     960.044      -0.524
  1732    281.06    -469.89045    -469.81780     960.044      -0.341
  1733    291.37    -469.89321    -469.81789     960.044      -0.107
  1734    296.52    -469.89459    -469.81794     960.044       0.147
  1735    295.35    -469.89431    -469.81796     960.044       0.387
  1736    290.56    -469.89303    -469.81792     960.044       0.581
  1737    287.31    -469.89214    -469.81786     960.044       0.703
  1738    290.33    -469.89291    -469.81785     960.044       0.733
  1739    301.04    -469.89573    -469.81791     960.044       0.667
  1740    316.30    -469.89976    -469.81800     960.044       0.514
  1741    330.03    -469.90338    -469.81806     960.044       0.299
  1742    336.33    -469.90502    -469.81807     960.044       0.051
  1743    332.46    -469.90413    -469.81818     960.044      -0.197
  1744    320.02    -469.90066    -469.81793     960.044      -0.414
  1745    303.90    -469.89634    -469.81778     960.044      -0.578
  1746    289.83    -469.89258    -469.81765     960.044      -0.671
  1747    282.11    -469.89054    -469.81761     960.044      -0.682
  1748    281.90    -469.89052    -469.81765     960.044      -0.610
  1749    286.98    -469.89192    -469.81774     960.044      -0.461
  1750    292.86    -469.89355    -469.81785     960.044      -0.251
  1751    294.95    -469.89418    -469.81793     960.044      -0.006
  1752    290.92    -469.89316    -469.81795     960.044       0.246
  1753    282.15    -469.89085    -469.81791     960.044       0.472
  1754    273.38    -469.88852    -469.81785     960.044       0.639
  1755    270.35    -469.88770    -469.81782     960.044       0.724
  1756    276.64    -469.88936    -469.81785     960.044       0.714
  1757    291.42    -469.89327    -469.81794     960.044       0.612
  1758    309.49    -469.89804    -469.81804     960.044       0.432
  1759    323.87    -469.90182    -469.81810     960.044       0.199
  1760    329.34    -469.90322    -469.81808     960.044      -0.053
  1761    324.83    -469.90201    -469.81803     960.044      -0.292
  1762    313.44    -469.89887    -469.81784     960.044      -0.492
  1763    300.78    -469.89546    -469.81771     960.044      -0.630
  1764    292.33    -469.89321    -469.81764     960.044      -0.690
  1765    291.10    -469.89291    -469.81766     960.044      -0.665
  1766    296.41    -469.89437    -469.81774     960.044      -0.557
  1767    304.34    -469.89654    -469.81786     960.044      -0.378
  1768    309.42    -469.89796    -469.81797     960.044      -0.145
  1769    307.27    -469.89743    -469.81800     960.044       0.112
  1770    296.97    -469.89476    -469.81799     960.044       0.360
  1771    281.80    -469.89079    -469.81794     960.044       0.568
  1772    268.10    -469.88718    -469.81787     960.044       0.706
  1773    262.14    -469.88561    -469.81784     960.044       0.752
  1774    266.77    -469.88685    -469.81789     960.044       0.700
  1775    279.81    -469.89032    -469.81798     960.044       0.560
  1776    295.28    -469.89441    -469.81807     960.044       0.351
  1777    306.63    -469.89737    -469.81810     960.044       0.102
  1778    310.11    -469.89821    -469.81804     960.044      -0.152
  1779    306.30    -469.89707    -469.81789     960.044      -0.381
  1780    299.26    -469.89512    -469.81776     960.044      -0.560
  1781    294.33    -469.89375    -469.81766     960.044      -0.668
  1782    295.48    -469.89401    -469.81763     960.044      -0.692
  1783    303.46    -469.89612    -469.81767     960.044      -0.632
  1784    315.37    -469.89929    -469.81776     960.044      -0.491
  1785    325.82    -469.90211    -469.81788     960.044      -0.287
  1786    329.32    -469.90311    -469.81798     960.044      -0.041
  1787    322.91    -469.90151    -469.81803     960.044       0.216
  1788    307.88    -469.89754    -469.81795     960.044       0.448
  1789    289.56    -469.89271    -469.81786     960.044       0.627
  1790    274.97    -469.88889    -469.81781     960.044       0.724
  1791    269.33    -469.88744    -469.81782     960.044       0.726
  1792    273.38    -469.88856    -469.81789     960.044       0.633
  1793    283.18    -469.89119    -469.81799     960.044       0.462
  1794    292.56    -469.89367    -469.81805     960.044       0.235
  1795    296.45    -469.89467    -469.81803     960.044      -0.016
  1796    293.43    -469.89381    -469.81796     960.044      -0.260
  1797    286.12    -469.89178    -469.81782     960.044      -0.468
  1798    279.53    -469.88995    -469.81769     960.044      -0.617
  1799    278.67    -469.88966    -469.81762     960.044      -0.689
  1800    286.11    -469.89159    -469.81763     960.044      -0.679
  1801    300.80    -469.89548    -469.81772     960.044      -0.585
  1802    318.33    -469.90015    -469.81785     960.044      -0.416
  1803    332.49    -469.90395    -469.81800     960.044      -0.190
  1804    337.91    -469.90545    -469.81809     960.044       0.064
  1805    332.66    -469.90404    -469.81804     960.044       0.316
  1806    319.23    -469.90050    -469.81797     960.044       0.531
  1807    303.46    -469.89636    -469.81791     960.044       0.680
  1808    291.71    -469.89328    -469.81787     960.044       0.740
  1809    287.57    -469.89224    -469.81790     960.044       0.703
  1810    290.06    -469.89297    -469.81798     960.044       0.576
  1811    294.55    -469.89420    -469.81806     960.044       0.378
  1812    295.76    -469.89454    -469.81808     960.044       0.138
  1813    290.84    -469.89320    -469.81801     960.044      -0.113
  1814    280.79    -469.89046    -469.81787     960.044      -0.344
  1815    269.89    -469.88750    -469.81773     960.044      -0.528
  1816    263.52    -469.88576    -469.81764     960.044      -0.646
  1817    265.72    -469.88630    -469.81761     960.044      -0.684
  1818    277.34    -469.88934    -469.81765     960.044      -0.638
  1819    295.49    -469.89413    -469.81775     960.044      -0.510
  1820    314.59    -469.89919    -469.81786     960.044      -0.315
  1821    328.51    -469.90288    -469.81795     960.044      -0.074
  1822    333.17    -469.90409    -469.81797     960.044       0.183
  1823    328.56    -469.90293    -469.81799     960.044       0.423
  1824    318.80    -469.90032    -469.81791     960.044       0.609
  1825    309.93    -469.89797    -469.81785     960.044       0.716
  1826    306.57    -469.89711    -469.81786     960.044       0.728
  1827    309.26    -469.89787    -469.81793     960.044       0.644
  1828    314.36    -469.89928    -469.81801     960.044       0.477
  1829    316.36    -469.89984    -469.81806     960.044       0.254
  1830    311.17    -469.89848    -469.81804     960.044       0.004
  1831    298.30    -469.89507    -469.81796     960.044      -0.242
  1832    281.22    -469.89050    -469.81780     960.044      -0.454
  1833    265.73    -469.88636    -469.81766     960.044      -0.609
  1834    257.47    -469.88414    -469.81758     960.044      -0.689
  1835    259.56    -469.88468    -469.81758     960.044      -0.684
  1836    271.40    -469.88782    -469.81766     960.044      -0.594
  1837    288.89    -469.89246    -469.81778     960.044      -0.430
  1838    306.08    -469.89703    -469.81790     960.044      -0.208
  1839    317.64    -469.90009    -469.81798     960.044       0.047
  1840    321.17    -469.90101    -469.81798     960.044       0.299
  1841    318.35    -469.90024    -469.81794     960.044       0.516
  1842    313.78    -469.89901    -469.81790     960.044       0.666
  1843    312.33    -469.89863    -469.81789     960.044       0.731
  1844    316.13    -469.89965    -469.81793     960.044       0.699
  1845    323.31    -469.90158    -469.81800     960.044       0.577
  1846    329.01    -469.90312    -469.81807     960.044       0.382
  1847    328.20    -469.90293    -469.81809     960.044       0.144
  1848    318.54    -469.90038    -469.81803     960.044      -0.107
  1849    301.69    -469.89587    -469.81787     960.044      -0.338
  1850    282.56    -469.89078    -469.81774     960.044      -0.523
  1851    267.10    -469.88669    -469.81764     960.044      -0.642
  1852    259.92    -469.88480    -469.81761     960.044      -0.682
  1853    262.48    -469.88550    -469.81765     960.044      -0.638
  1854    272.60    -469.88821    -469.81774     960.044      -0.512
  1855    285.34    -469.89162    -469.81785     960.044      -0.316
  1856    295.16    -469.89423    -469.81793     960.044      -0.073
  1857    298.67    -469.89515    -469.81794     960.044       0.186
  1858    296.33    -469.89456    -469.81796     960.044       0.425
  1859    292.17    -469.89343    -469.81790     960.044       0.613
  1860    291.58    -469.89323    -469.81786     960.044       0.720
  1861    298.10    -469.89494    -469.81788     960.044       0.733
  1862    311.10    -469.89838    -469.81796     960.044       0.651
  1863    325.92    -469.90231    -469.81805     960.044       0.486
